Channel	Intg Period [ms]	Avg. [scans]	Smoothing [pixels]
=========	=========	=========	=========
Slave1	358	1	0	

Slave1	uW/cm^2/nm	
DATA
 178.16	0.00000E+0
 178.55	0.00000E+0
 178.93	0.00000E+0
 179.31	0.00000E+0
 179.69	0.00000E+0
 180.07	0.00000E+0
 180.45	0.00000E+0
 180.83	0.00000E+0
 181.21	0.00000E+0
 181.59	0.00000E+0
 181.97	0.00000E+0
 182.35	0.00000E+0
 182.73	0.00000E+0
 183.11	0.00000E+0
 183.49	0.00000E+0
 183.87	0.00000E+0
 184.25	0.00000E+0
 184.63	0.00000E+0
 185.01	0.00000E+0
 185.39	0.00000E+0
 185.77	0.00000E+0
 186.15	0.00000E+0
 186.53	0.00000E+0
 186.91	0.00000E+0
 187.29	0.00000E+0
 187.67	0.00000E+0
 188.05	0.00000E+0
 188.43	0.00000E+0
 188.81	0.00000E+0
 189.19	0.00000E+0
 189.57	0.00000E+0
 189.95	0.00000E+0
 190.33	0.00000E+0
 190.71	0.00000E+0
 191.09	0.00000E+0
 191.47	0.00000E+0
 191.85	0.00000E+0
 192.23	0.00000E+0
 192.61	0.00000E+0
 192.99	0.00000E+0
 193.37	0.00000E+0
 193.75	0.00000E+0
 194.13	0.00000E+0
 194.51	0.00000E+0
 194.88	0.00000E+0
 195.26	0.00000E+0
 195.64	0.00000E+0
 196.02	0.00000E+0
 196.40	0.00000E+0
 196.78	0.00000E+0
 197.16	0.00000E+0
 197.54	0.00000E+0
 197.92	0.00000E+0
 198.30	0.00000E+0
 198.68	0.00000E+0
 199.05	0.00000E+0
 199.43	0.00000E+0
 199.81	0.00000E+0
 200.19	0.00000E+0
 200.57	0.00000E+0
 200.95	0.00000E+0
 201.33	0.00000E+0
 201.71	0.00000E+0
 202.08	0.00000E+0
 202.46	0.00000E+0
 202.84	0.00000E+0
 203.22	0.00000E+0
 203.60	0.00000E+0
 203.98	0.00000E+0
 204.36	0.00000E+0
 204.73	0.00000E+0
 205.11	0.00000E+0
 205.49	0.00000E+0
 205.87	0.00000E+0
 206.25	0.00000E+0
 206.63	0.00000E+0
 207.00	0.00000E+0
 207.38	0.00000E+0
 207.76	0.00000E+0
 208.14	0.00000E+0
 208.52	0.00000E+0
 208.90	0.00000E+0
 209.27	0.00000E+0
 209.65	0.00000E+0
 210.03	0.00000E+0
 210.41	0.00000E+0
 210.79	0.00000E+0
 211.16	0.00000E+0
 211.54	0.00000E+0
 211.92	0.00000E+0
 212.30	0.00000E+0
 212.67	0.00000E+0
 213.05	0.00000E+0
 213.43	0.00000E+0
 213.81	0.00000E+0
 214.18	0.00000E+0
 214.56	0.00000E+0
 214.94	0.00000E+0
 215.32	0.00000E+0
 215.69	0.00000E+0
 216.07	0.00000E+0
 216.45	0.00000E+0
 216.83	0.00000E+0
 217.20	0.00000E+0
 217.58	0.00000E+0
 217.96	0.00000E+0
 218.34	0.00000E+0
 218.71	0.00000E+0
 219.09	0.00000E+0
 219.47	0.00000E+0
 219.84	0.00000E+0
 220.22	0.00000E+0
 220.60	0.00000E+0
 220.98	0.00000E+0
 221.35	0.00000E+0
 221.73	0.00000E+0
 222.11	0.00000E+0
 222.48	0.00000E+0
 222.86	0.00000E+0
 223.24	0.00000E+0
 223.61	0.00000E+0
 223.99	0.00000E+0
 224.37	0.00000E+0
 224.74	0.00000E+0
 225.12	0.00000E+0
 225.50	0.00000E+0
 225.87	0.00000E+0
 226.25	0.00000E+0
 226.63	0.00000E+0
 227.00	0.00000E+0
 227.38	0.00000E+0
 227.76	0.00000E+0
 228.13	0.00000E+0
 228.51	0.00000E+0
 228.88	0.00000E+0
 229.26	0.00000E+0
 229.64	0.00000E+0
 230.01	0.00000E+0
 230.39	0.00000E+0
 230.77	0.00000E+0
 231.14	0.00000E+0
 231.52	0.00000E+0
 231.89	0.00000E+0
 232.27	0.00000E+0
 232.65	0.00000E+0
 233.02	0.00000E+0
 233.40	0.00000E+0
 233.77	0.00000E+0
 234.15	0.00000E+0
 234.53	0.00000E+0
 234.90	0.00000E+0
 235.28	0.00000E+0
 235.65	0.00000E+0
 236.03	0.00000E+0
 236.40	0.00000E+0
 236.78	0.00000E+0
 237.15	0.00000E+0
 237.53	0.00000E+0
 237.91	0.00000E+0
 238.28	0.00000E+0
 238.66	0.00000E+0
 239.03	0.00000E+0
 239.41	0.00000E+0
 239.78	0.00000E+0
 240.16	0.00000E+0
 240.53	0.00000E+0
 240.91	0.00000E+0
 241.28	0.00000E+0
 241.66	0.00000E+0
 242.03	0.00000E+0
 242.41	0.00000E+0
 242.78	0.00000E+0
 243.16	0.00000E+0
 243.53	0.00000E+0
 243.91	0.00000E+0
 244.28	0.00000E+0
 244.66	0.00000E+0
 245.03	0.00000E+0
 245.41	0.00000E+0
 245.78	0.00000E+0
 246.16	0.00000E+0
 246.53	0.00000E+0
 246.91	0.00000E+0
 247.28	0.00000E+0
 247.66	0.00000E+0
 248.03	0.00000E+0
 248.41	0.00000E+0
 248.78	0.00000E+0
 249.15	0.00000E+0
 249.53	0.00000E+0
 249.90	0.00000E+0
 250.28	0.00000E+0
 250.65	0.00000E+0
 251.03	0.00000E+0
 251.40	0.00000E+0
 251.77	0.00000E+0
 252.15	0.00000E+0
 252.52	0.00000E+0
 252.90	0.00000E+0
 253.27	0.00000E+0
 253.64	0.00000E+0
 254.02	0.00000E+0
 254.39	0.00000E+0
 254.77	0.00000E+0
 255.14	0.00000E+0
 255.51	0.00000E+0
 255.89	0.00000E+0
 256.26	0.00000E+0
 256.64	0.00000E+0
 257.01	0.00000E+0
 257.38	0.00000E+0
 257.76	0.00000E+0
 258.13	0.00000E+0
 258.50	0.00000E+0
 258.88	0.00000E+0
 259.25	0.00000E+0
 259.62	0.00000E+0
 260.00	0.00000E+0
 260.37	0.00000E+0
 260.74	0.00000E+0
 261.12	0.00000E+0
 261.49	0.00000E+0
 261.86	0.00000E+0
 262.24	0.00000E+0
 262.61	0.00000E+0
 262.98	0.00000E+0
 263.36	0.00000E+0
 263.73	0.00000E+0
 264.10	0.00000E+0
 264.48	0.00000E+0
 264.85	0.00000E+0
 265.22	0.00000E+0
 265.60	0.00000E+0
 265.97	0.00000E+0
 266.34	0.00000E+0
 266.71	0.00000E+0
 267.09	0.00000E+0
 267.46	0.00000E+0
 267.83	0.00000E+0
 268.21	0.00000E+0
 268.58	0.00000E+0
 268.95	0.00000E+0
 269.32	0.00000E+0
 269.70	0.00000E+0
 270.07	0.00000E+0
 270.44	0.00000E+0
 270.81	0.00000E+0
 271.19	0.00000E+0
 271.56	0.00000E+0
 271.93	0.00000E+0
 272.30	0.00000E+0
 272.68	0.00000E+0
 273.05	0.00000E+0
 273.42	0.00000E+0
 273.79	0.00000E+0
 274.16	0.00000E+0
 274.54	0.00000E+0
 274.91	0.00000E+0
 275.28	0.00000E+0
 275.65	0.00000E+0
 276.02	0.00000E+0
 276.40	0.00000E+0
 276.77	0.00000E+0
 277.14	0.00000E+0
 277.51	0.00000E+0
 277.88	0.00000E+0
 278.26	0.00000E+0
 278.63	0.00000E+0
 279.00	0.00000E+0
 279.37	0.00000E+0
 279.74	0.00000E+0
 280.11	0.00000E+0
 280.48	0.00000E+0
 280.86	0.00000E+0
 281.23	0.00000E+0
 281.60	0.00000E+0
 281.97	0.00000E+0
 282.34	0.00000E+0
 282.71	0.00000E+0
 283.08	0.00000E+0
 283.46	0.00000E+0
 283.83	0.00000E+0
 284.20	0.00000E+0
 284.57	0.00000E+0
 284.94	0.00000E+0
 285.31	0.00000E+0
 285.68	0.00000E+0
 286.05	0.00000E+0
 286.42	0.00000E+0
 286.80	0.00000E+0
 287.17	0.00000E+0
 287.54	0.00000E+0
 287.91	0.00000E+0
 288.28	0.00000E+0
 288.65	0.00000E+0
 289.02	0.00000E+0
 289.39	0.00000E+0
 289.76	0.00000E+0
 290.13	0.00000E+0
 290.50	0.00000E+0
 290.87	0.00000E+0
 291.24	0.00000E+0
 291.62	0.00000E+0
 291.99	0.00000E+0
 292.36	0.00000E+0
 292.73	0.00000E+0
 293.10	0.00000E+0
 293.47	0.00000E+0
 293.84	0.00000E+0
 294.21	0.00000E+0
 294.58	0.00000E+0
 294.95	0.00000E+0
 295.32	0.00000E+0
 295.69	0.00000E+0
 296.06	0.00000E+0
 296.43	0.00000E+0
 296.80	0.00000E+0
 297.17	0.00000E+0
 297.54	0.00000E+0
 297.91	0.00000E+0
 298.28	0.00000E+0
 298.65	0.00000E+0
 299.02	0.00000E+0
 299.39	0.00000E+0
 299.76	0.00000E+0
 300.13	0.00000E+0
 300.50	0.00000E+0
 300.87	0.00000E+0
 301.24	0.00000E+0
 301.61	0.00000E+0
 301.97	0.00000E+0
 302.34	0.00000E+0
 302.71	0.00000E+0
 303.08	0.00000E+0
 303.45	0.00000E+0
 303.82	0.00000E+0
 304.19	0.00000E+0
 304.56	0.00000E+0
 304.93	0.00000E+0
 305.30	0.00000E+0
 305.67	0.00000E+0
 306.04	0.00000E+0
 306.41	0.00000E+0
 306.77	0.00000E+0
 307.14	0.00000E+0
 307.51	0.00000E+0
 307.88	0.00000E+0
 308.25	0.00000E+0
 308.62	0.00000E+0
 308.99	0.00000E+0
 309.36	0.00000E+0
 309.73	0.00000E+0
 310.09	0.00000E+0
 310.46	0.00000E+0
 310.83	0.00000E+0
 311.20	0.00000E+0
 311.57	0.00000E+0
 311.94	0.00000E+0
 312.31	0.00000E+0
 312.67	0.00000E+0
 313.04	0.00000E+0
 313.41	0.00000E+0
 313.78	0.00000E+0
 314.15	0.00000E+0
 314.52	0.00000E+0
 314.88	0.00000E+0
 315.25	0.00000E+0
 315.62	0.00000E+0
 315.99	0.00000E+0
 316.36	0.00000E+0
 316.73	0.00000E+0
 317.09	0.00000E+0
 317.46	0.00000E+0
 317.83	0.00000E+0
 318.20	0.00000E+0
 318.57	0.00000E+0
 318.93	0.00000E+0
 319.30	0.00000E+0
 319.67	0.00000E+0
 320.04	0.00000E+0
 320.40	0.00000E+0
 320.77	0.00000E+0
 321.14	0.00000E+0
 321.51	0.00000E+0
 321.88	0.00000E+0
 322.24	0.00000E+0
 322.61	0.00000E+0
 322.98	0.00000E+0
 323.35	0.00000E+0
 323.71	0.00000E+0
 324.08	0.00000E+0
 324.45	0.00000E+0
 324.81	0.00000E+0
 325.18	0.00000E+0
 325.55	0.00000E+0
 325.92	0.00000E+0
 326.28	0.00000E+0
 326.65	0.00000E+0
 327.02	0.00000E+0
 327.38	0.00000E+0
 327.75	0.00000E+0
 328.12	0.00000E+0
 328.49	0.00000E+0
 328.85	0.00000E+0
 329.22	0.00000E+0
 329.59	0.00000E+0
 329.95	0.00000E+0
 330.32	0.00000E+0
 330.69	0.00000E+0
 331.05	0.00000E+0
 331.42	0.00000E+0
 331.79	0.00000E+0
 332.15	0.00000E+0
 332.52	0.00000E+0
 332.89	0.00000E+0
 333.25	0.00000E+0
 333.62	0.00000E+0
 333.99	0.00000E+0
 334.35	0.00000E+0
 334.72	0.00000E+0
 335.08	0.00000E+0
 335.45	0.00000E+0
 335.82	0.00000E+0
 336.18	0.00000E+0
 336.55	0.00000E+0
 336.91	0.00000E+0
 337.28	0.00000E+0
 337.65	0.00000E+0
 338.01	0.00000E+0
 338.38	0.00000E+0
 338.74	0.00000E+0
 339.11	0.00000E+0
 339.48	0.00000E+0
 339.84	0.00000E+0
 340.21	0.00000E+0
 340.57	0.00000E+0
 340.94	0.00000E+0
 341.31	0.00000E+0
 341.67	0.00000E+0
 342.04	0.00000E+0
 342.40	0.00000E+0
 342.77	0.00000E+0
 343.13	0.00000E+0
 343.50	0.00000E+0
 343.86	0.00000E+0
 344.23	0.00000E+0
 344.59	0.00000E+0
 344.96	0.00000E+0
 345.33	0.00000E+0
 345.69	0.00000E+0
 346.06	0.00000E+0
 346.42	0.00000E+0
 346.79	0.00000E+0
 347.15	0.00000E+0
 347.52	0.00000E+0
 347.88	0.00000E+0
 348.25	0.00000E+0
 348.61	0.00000E+0
 348.98	0.00000E+0
 349.34	0.00000E+0
 349.71	0.00000E+0
 350.07	0.00000E+0
 350.44	0.00000E+0
 350.80	0.00000E+0
 351.16	0.00000E+0
 351.53	0.00000E+0
 351.89	0.00000E+0
 352.26	0.00000E+0
 352.62	0.00000E+0
 352.99	0.00000E+0
 353.35	0.00000E+0
 353.72	0.00000E+0
 354.08	0.00000E+0
 354.45	0.00000E+0
 354.81	0.00000E+0
 355.17	0.00000E+0
 355.54	0.00000E+0
 355.90	0.00000E+0
 356.27	0.00000E+0
 356.63	0.00000E+0
 356.99	0.00000E+0
 357.36	0.00000E+0
 357.72	0.00000E+0
 358.09	0.00000E+0
 358.45	0.00000E+0
 358.81	0.00000E+0
 359.18	0.00000E+0
 359.54	0.00000E+0
 359.91	0.00000E+0
 360.27	0.00000E+0
 360.63	0.00000E+0
 361.00	0.00000E+0
 361.36	0.00000E+0
 361.72	0.00000E+0
 362.09	0.00000E+0
 362.45	0.00000E+0
 362.82	0.00000E+0
 363.18	0.00000E+0
 363.54	0.00000E+0
 363.91	0.00000E+0
 364.27	0.00000E+0
 364.63	0.00000E+0
 365.00	0.00000E+0
 365.36	0.00000E+0
 365.72	0.00000E+0
 366.09	0.00000E+0
 366.45	0.00000E+0
 366.81	0.00000E+0
 367.17	0.00000E+0
 367.54	0.00000E+0
 367.90	0.00000E+0
 368.26	0.00000E+0
 368.63	0.00000E+0
 368.99	0.00000E+0
 369.35	0.00000E+0
 369.71	0.00000E+0
 370.08	0.00000E+0
 370.44	0.00000E+0
 370.80	0.00000E+0
 371.17	0.00000E+0
 371.53	0.00000E+0
 371.89	0.00000E+0
 372.25	0.00000E+0
 372.62	0.00000E+0
 372.98	0.00000E+0
 373.34	0.00000E+0
 373.70	0.00000E+0
 374.07	0.00000E+0
 374.43	0.00000E+0
 374.79	0.00000E+0
 375.15	0.00000E+0
 375.51	0.00000E+0
 375.88	0.00000E+0
 376.24	0.00000E+0
 376.60	0.00000E+0
 376.96	0.00000E+0
 377.33	0.00000E+0
 377.69	0.00000E+0
 378.05	0.00000E+0
 378.41	0.00000E+0
 378.77	0.00000E+0
 379.13	0.00000E+0
 379.50	0.00000E+0
 379.86	0.00000E+0
 380.22	0.00000E+0
 380.58	0.00000E+0
 380.94	0.00000E+0
 381.31	0.00000E+0
 381.67	0.00000E+0
 382.03	0.00000E+0
 382.39	0.00000E+0
 382.75	0.00000E+0
 383.11	0.00000E+0
 383.47	0.00000E+0
 383.84	0.00000E+0
 384.20	0.00000E+0
 384.56	0.00000E+0
 384.92	0.00000E+0
 385.28	0.00000E+0
 385.64	0.00000E+0
 386.00	0.00000E+0
 386.36	0.00000E+0
 386.73	0.00000E+0
 387.09	0.00000E+0
 387.45	0.00000E+0
 387.81	0.00000E+0
 388.17	0.00000E+0
 388.53	0.00000E+0
 388.89	0.00000E+0
 389.25	0.00000E+0
 389.61	0.00000E+0
 389.97	0.00000E+0
 390.33	0.00000E+0
 390.69	0.00000E+0
 391.05	0.00000E+0
 391.42	0.00000E+0
 391.78	0.00000E+0
 392.14	0.00000E+0
 392.50	0.00000E+0
 392.86	0.00000E+0
 393.22	0.00000E+0
 393.58	0.00000E+0
 393.94	0.00000E+0
 394.30	0.00000E+0
 394.66	0.00000E+0
 395.02	0.00000E+0
 395.38	0.00000E+0
 395.74	0.00000E+0
 396.10	0.00000E+0
 396.46	0.00000E+0
 396.82	0.00000E+0
 397.18	0.00000E+0
 397.54	0.00000E+0
 397.90	0.00000E+0
 398.26	0.00000E+0
 398.62	0.00000E+0
 398.98	0.00000E+0
 399.34	0.00000E+0
 399.70	0.00000E+0
 400.06	0.00000E+0
 400.42	0.00000E+0
 400.78	0.00000E+0
 401.14	0.00000E+0
 401.50	0.00000E+0
 401.86	0.00000E+0
 402.22	0.00000E+0
 402.57	0.00000E+0
 402.93	0.00000E+0
 403.29	0.00000E+0
 403.65	0.00000E+0
 404.01	0.00000E+0
 404.37	0.00000E+0
 404.73	0.00000E+0
 405.09	0.00000E+0
 405.45	0.00000E+0
 405.81	0.00000E+0
 406.17	0.00000E+0
 406.53	0.00000E+0
 406.88	0.00000E+0
 407.24	0.00000E+0
 407.60	0.00000E+0
 407.96	0.00000E+0
 408.32	0.00000E+0
 408.68	0.00000E+0
 409.04	0.00000E+0
 409.40	0.00000E+0
 409.75	0.00000E+0
 410.11	0.00000E+0
 410.47	0.00000E+0
 410.83	0.00000E+0
 411.19	0.00000E+0
 411.55	0.00000E+0
 411.91	0.00000E+0
 412.26	0.00000E+0
 412.62	0.00000E+0
 412.98	0.00000E+0
 413.34	0.00000E+0
 413.70	0.00000E+0
 414.06	0.00000E+0
 414.41	0.00000E+0
 414.77	0.00000E+0
 415.13	0.00000E+0
 415.49	0.00000E+0
 415.85	0.00000E+0
 416.20	0.00000E+0
 416.56	0.00000E+0
 416.92	0.00000E+0
 417.28	0.00000E+0
 417.64	0.00000E+0
 417.99	0.00000E+0
 418.35	0.00000E+0
 418.71	0.00000E+0
 419.07	0.00000E+0
 419.42	0.00000E+0
 419.78	0.00000E+0
 420.14	0.00000E+0
 420.50	0.00000E+0
 420.85	0.00000E+0
 421.21	0.00000E+0
 421.57	0.00000E+0
 421.93	0.00000E+0
 422.28	0.00000E+0
 422.64	0.00000E+0
 423.00	0.00000E+0
 423.36	0.00000E+0
 423.71	0.00000E+0
 424.07	0.00000E+0
 424.43	0.00000E+0
 424.78	0.00000E+0
 425.14	0.00000E+0
 425.50	0.00000E+0
 425.85	0.00000E+0
 426.21	0.00000E+0
 426.57	0.00000E+0
 426.93	0.00000E+0
 427.28	0.00000E+0
 427.64	0.00000E+0
 428.00	0.00000E+0
 428.35	0.00000E+0
 428.71	0.00000E+0
 429.07	0.00000E+0
 429.42	0.00000E+0
 429.78	0.00000E+0
 430.13	0.00000E+0
 430.49	0.00000E+0
 430.85	0.00000E+0
 431.20	0.00000E+0
 431.56	0.00000E+0
 431.92	0.00000E+0
 432.27	0.00000E+0
 432.63	0.00000E+0
 432.99	0.00000E+0
 433.34	0.00000E+0
 433.70	0.00000E+0
 434.05	0.00000E+0
 434.41	0.00000E+0
 434.77	0.00000E+0
 435.12	0.00000E+0
 435.48	0.00000E+0
 435.83	0.00000E+0
 436.19	0.00000E+0
 436.54	0.00000E+0
 436.90	0.00000E+0
 437.26	0.00000E+0
 437.61	0.00000E+0
 437.97	0.00000E+0
 438.32	0.00000E+0
 438.68	0.00000E+0
 439.03	0.00000E+0
 439.39	0.00000E+0
 439.75	0.00000E+0
 440.10	0.00000E+0
 440.46	0.00000E+0
 440.81	0.00000E+0
 441.17	0.00000E+0
 441.52	0.00000E+0
 441.88	0.00000E+0
 442.23	0.00000E+0
 442.59	0.00000E+0
 442.94	0.00000E+0
 443.30	0.00000E+0
 443.65	0.00000E+0
 444.01	0.00000E+0
 444.36	0.00000E+0
 444.72	0.00000E+0
 445.07	0.00000E+0
 445.43	0.00000E+0
 445.78	0.00000E+0
 446.14	0.00000E+0
 446.49	0.00000E+0
 446.85	0.00000E+0
 447.20	0.00000E+0
 447.56	0.00000E+0
 447.91	0.00000E+0
 448.26	0.00000E+0
 448.62	0.00000E+0
 448.97	0.00000E+0
 449.33	0.00000E+0
 449.68	0.00000E+0
 450.04	0.00000E+0
 450.39	0.00000E+0
 450.74	0.00000E+0
 451.10	0.00000E+0
 451.45	0.00000E+0
 451.81	0.00000E+0
 452.16	0.00000E+0
 452.52	0.00000E+0
 452.87	0.00000E+0
 453.22	0.00000E+0
 453.58	0.00000E+0
 453.93	0.00000E+0
 454.28	0.00000E+0
 454.64	0.00000E+0
 454.99	0.00000E+0
 455.35	0.00000E+0
 455.70	0.00000E+0
 456.05	0.00000E+0
 456.41	0.00000E+0
 456.76	0.00000E+0
 457.11	0.00000E+0
 457.47	0.00000E+0
 457.82	0.00000E+0
 458.17	0.00000E+0
 458.53	0.00000E+0
 458.88	0.00000E+0
 459.23	0.00000E+0
 459.59	0.00000E+0
 459.94	0.00000E+0
 460.29	0.00000E+0
 460.65	0.00000E+0
 461.00	0.00000E+0
 461.35	0.00000E+0
 461.71	0.00000E+0
 462.06	0.00000E+0
 462.41	0.00000E+0
 462.77	0.00000E+0
 463.12	0.00000E+0
 463.47	0.00000E+0
 463.82	0.00000E+0
 464.18	0.00000E+0
 464.53	0.00000E+0
 464.88	0.00000E+0
 465.23	0.00000E+0
 465.59	0.00000E+0
 465.94	0.00000E+0
 466.29	0.00000E+0
 466.64	0.00000E+0
 467.00	0.00000E+0
 467.35	0.00000E+0
 467.70	0.00000E+0
 468.05	0.00000E+0
 468.41	0.00000E+0
 468.76	0.00000E+0
 469.11	0.00000E+0
 469.46	0.00000E+0
 469.82	0.00000E+0
 470.17	0.00000E+0
 470.52	0.00000E+0
 470.87	0.00000E+0
 471.22	0.00000E+0
 471.58	0.00000E+0
 471.93	0.00000E+0
 472.28	0.00000E+0
 472.63	0.00000E+0
 472.98	0.00000E+0
 473.33	0.00000E+0
 473.69	0.00000E+0
 474.04	0.00000E+0
 474.39	0.00000E+0
 474.74	0.00000E+0
 475.09	0.00000E+0
 475.44	0.00000E+0
 475.80	0.00000E+0
 476.15	0.00000E+0
 476.50	0.00000E+0
 476.85	0.00000E+0
 477.20	0.00000E+0
 477.55	0.00000E+0
 477.90	0.00000E+0
 478.25	0.00000E+0
 478.61	0.00000E+0
 478.96	0.00000E+0
 479.31	0.00000E+0
 479.66	0.00000E+0
 480.01	0.00000E+0
 480.36	0.00000E+0
 480.71	0.00000E+0
 481.06	0.00000E+0
 481.41	0.00000E+0
 481.76	0.00000E+0
 482.11	0.00000E+0
 482.47	0.00000E+0
 482.82	0.00000E+0
 483.17	0.00000E+0
 483.52	0.00000E+0
 483.87	0.00000E+0
 484.22	0.00000E+0
 484.57	0.00000E+0
 484.92	0.00000E+0
 485.27	0.00000E+0
 485.62	0.00000E+0
 485.97	0.00000E+0
 486.32	0.00000E+0
 486.67	0.00000E+0
 487.02	0.00000E+0
 487.37	0.00000E+0
 487.72	0.00000E+0
 488.07	0.00000E+0
 488.42	0.00000E+0
 488.77	0.00000E+0
 489.12	0.00000E+0
 489.47	0.00000E+0
 489.82	0.00000E+0
 490.17	0.00000E+0
 490.52	0.00000E+0
 490.87	0.00000E+0
 491.22	0.00000E+0
 491.57	0.00000E+0
 491.92	0.00000E+0
 492.27	0.00000E+0
 492.62	0.00000E+0
 492.97	0.00000E+0
 493.32	0.00000E+0
 493.67	0.00000E+0
 494.02	0.00000E+0
 494.37	0.00000E+0
 494.71	0.00000E+0
 495.06	0.00000E+0
 495.41	0.00000E+0
 495.76	0.00000E+0
 496.11	0.00000E+0
 496.46	0.00000E+0
 496.81	0.00000E+0
 497.16	0.00000E+0
 497.51	0.00000E+0
 497.86	0.00000E+0
 498.21	0.00000E+0
 498.55	0.00000E+0
 498.90	0.00000E+0
 499.25	0.00000E+0
 499.60	0.00000E+0
 499.95	0.00000E+0
 500.30	0.00000E+0
 500.65	0.00000E+0
 501.00	0.00000E+0
 501.34	0.00000E+0
 501.69	0.00000E+0
 502.04	0.00000E+0
 502.39	0.00000E+0
 502.74	0.00000E+0
 503.09	0.00000E+0
 503.43	0.00000E+0
 503.78	0.00000E+0
 504.13	0.00000E+0
 504.48	0.00000E+0
 504.83	0.00000E+0
 505.18	0.00000E+0
 505.52	0.00000E+0
 505.87	0.00000E+0
 506.22	0.00000E+0
 506.57	0.00000E+0
 506.92	0.00000E+0
 507.26	0.00000E+0
 507.61	0.00000E+0
 507.96	0.00000E+0
 508.31	0.00000E+0
 508.65	0.00000E+0
 509.00	0.00000E+0
 509.35	0.00000E+0
 509.70	0.00000E+0
 510.04	0.00000E+0
 510.39	0.00000E+0
 510.74	0.00000E+0
 511.09	0.00000E+0
 511.43	0.00000E+0
 511.78	0.00000E+0
 512.13	0.00000E+0
 512.48	0.00000E+0
 512.82	0.00000E+0
 513.17	0.00000E+0
 513.52	0.00000E+0
 513.86	0.00000E+0
 514.21	0.00000E+0
 514.56	0.00000E+0
 514.91	0.00000E+0
 515.25	0.00000E+0
 515.60	0.00000E+0
 515.95	0.00000E+0
 516.29	0.00000E+0
 516.64	0.00000E+0
 516.99	0.00000E+0
 517.33	0.00000E+0
 517.68	0.00000E+0
 518.03	0.00000E+0
 518.37	0.00000E+0
 518.72	0.00000E+0
 519.07	0.00000E+0
 519.41	0.00000E+0
 519.76	0.00000E+0
 520.11	0.00000E+0
 520.45	0.00000E+0
 520.80	0.00000E+0
 521.14	0.00000E+0
 521.49	0.00000E+0
 521.84	0.00000E+0
 522.18	0.00000E+0
 522.53	0.00000E+0
 522.87	0.00000E+0
 523.22	0.00000E+0
 523.57	0.00000E+0
 523.91	0.00000E+0
 524.26	0.00000E+0
 524.60	0.00000E+0
 524.95	0.00000E+0
 525.30	0.00000E+0
 525.64	0.00000E+0
 525.99	0.00000E+0
 526.33	0.00000E+0
 526.68	0.00000E+0
 527.02	0.00000E+0
 527.37	0.00000E+0
 527.72	0.00000E+0
 528.06	0.00000E+0
 528.41	0.00000E+0
 528.75	0.00000E+0
 529.10	0.00000E+0
 529.44	0.00000E+0
 529.79	0.00000E+0
 530.13	0.00000E+0
 530.48	0.00000E+0
 530.82	0.00000E+0
 531.17	0.00000E+0
 531.51	0.00000E+0
 531.86	0.00000E+0
 532.20	0.00000E+0
 532.55	0.00000E+0
 532.89	0.00000E+0
 533.24	0.00000E+0
 533.58	0.00000E+0
 533.93	0.00000E+0
 534.27	0.00000E+0
 534.62	0.00000E+0
 534.96	0.00000E+0
 535.31	0.00000E+0
 535.65	0.00000E+0
 535.99	0.00000E+0
 536.34	0.00000E+0
 536.68	0.00000E+0
 537.03	0.00000E+0
 537.37	0.00000E+0
 537.72	0.00000E+0
 538.06	0.00000E+0
 538.40	0.00000E+0
 538.75	0.00000E+0
 539.09	0.00000E+0
 539.44	0.00000E+0
 539.78	0.00000E+0
 540.13	0.00000E+0
 540.47	0.00000E+0
 540.81	0.00000E+0
 541.16	0.00000E+0
 541.50	0.00000E+0
 541.84	0.00000E+0
 542.19	0.00000E+0
 542.53	0.00000E+0
 542.88	0.00000E+0
 543.22	0.00000E+0
 543.56	0.00000E+0
 543.91	0.00000E+0
 544.25	0.00000E+0
 544.59	0.00000E+0
 544.94	0.00000E+0
 545.28	0.00000E+0
 545.62	0.00000E+0
 545.97	0.00000E+0
 546.31	0.00000E+0
 546.65	0.00000E+0
 547.00	0.00000E+0
 547.34	0.00000E+0
 547.68	0.00000E+0
 548.03	0.00000E+0
 548.37	0.00000E+0
 548.71	0.00000E+0
 549.05	0.00000E+0
 549.40	0.00000E+0
 549.74	0.00000E+0
 550.08	0.00000E+0
 550.43	0.00000E+0
 550.77	0.00000E+0
 551.11	0.00000E+0
 551.45	0.00000E+0
 551.80	0.00000E+0
 552.14	0.00000E+0
 552.48	0.00000E+0
 552.82	0.00000E+0
 553.17	0.00000E+0
 553.51	0.00000E+0
 553.85	0.00000E+0
 554.19	0.00000E+0
 554.54	0.00000E+0
 554.88	0.00000E+0
 555.22	0.00000E+0
 555.56	0.00000E+0
 555.90	0.00000E+0
 556.25	0.00000E+0
 556.59	0.00000E+0
 556.93	0.00000E+0
 557.27	0.00000E+0
 557.61	0.00000E+0
 557.96	0.00000E+0
 558.30	0.00000E+0
 558.64	0.00000E+0
 558.98	0.00000E+0
 559.32	0.00000E+0
 559.66	0.00000E+0
 560.01	0.00000E+0
 560.35	0.00000E+0
 560.69	0.00000E+0
 561.03	0.00000E+0
 561.37	0.00000E+0
 561.71	0.00000E+0
 562.06	0.00000E+0
 562.40	0.00000E+0
 562.74	0.00000E+0
 563.08	0.00000E+0
 563.42	0.00000E+0
 563.76	0.00000E+0
 564.10	0.00000E+0
 564.44	0.00000E+0
 564.78	0.00000E+0
 565.13	0.00000E+0
 565.47	0.00000E+0
 565.81	0.00000E+0
 566.15	0.00000E+0
 566.49	0.00000E+0
 566.83	0.00000E+0
 567.17	0.00000E+0
 567.51	0.00000E+0
 567.85	0.00000E+0
 568.19	0.00000E+0
 568.53	0.00000E+0
 568.87	0.00000E+0
 569.21	0.00000E+0
 569.55	0.00000E+0
 569.89	0.00000E+0
 570.24	0.00000E+0
 570.58	0.00000E+0
 570.92	0.00000E+0
 571.26	0.00000E+0
 571.60	0.00000E+0
 571.94	0.00000E+0
 572.28	0.00000E+0
 572.62	0.00000E+0
 572.96	0.00000E+0
 573.30	0.00000E+0
 573.64	0.00000E+0
 573.98	0.00000E+0
 574.32	0.00000E+0
 574.66	0.00000E+0
 575.00	0.00000E+0
 575.34	0.00000E+0
 575.68	0.00000E+0
 576.01	0.00000E+0
 576.35	0.00000E+0
 576.69	0.00000E+0
 577.03	0.00000E+0
 577.37	0.00000E+0
 577.71	0.00000E+0
 578.05	0.00000E+0
 578.39	0.00000E+0
 578.73	0.00000E+0
 579.07	0.00000E+0
 579.41	0.00000E+0
 579.75	0.00000E+0
 580.09	0.00000E+0
 580.43	0.00000E+0
 580.77	0.00000E+0
 581.10	0.00000E+0
 581.44	0.00000E+0
 581.78	0.00000E+0
 582.12	0.00000E+0
 582.46	0.00000E+0
 582.80	0.00000E+0
 583.14	0.00000E+0
 583.48	0.00000E+0
 583.82	0.00000E+0
 584.15	0.00000E+0
 584.49	0.00000E+0
 584.83	0.00000E+0
 585.17	0.00000E+0
 585.51	0.00000E+0
 585.85	0.00000E+0
 586.18	0.00000E+0
 586.52	0.00000E+0
 586.86	0.00000E+0
 587.20	0.00000E+0
 587.54	0.00000E+0
 587.88	0.00000E+0
 588.21	0.00000E+0
 588.55	0.00000E+0
 588.89	0.00000E+0
 589.23	0.00000E+0
 589.57	0.00000E+0
 589.90	0.00000E+0
 590.24	0.00000E+0
 590.58	0.00000E+0
 590.92	0.00000E+0
 591.26	0.00000E+0
 591.59	0.00000E+0
 591.93	0.00000E+0
 592.27	0.00000E+0
 592.61	0.00000E+0
 592.94	0.00000E+0
 593.28	0.00000E+0
 593.62	0.00000E+0
 593.96	0.00000E+0
 594.29	0.00000E+0
 594.63	0.00000E+0
 594.97	0.00000E+0
 595.30	0.00000E+0
 595.64	0.00000E+0
 595.98	0.00000E+0
 596.32	0.00000E+0
 596.65	0.00000E+0
 596.99	0.00000E+0
 597.33	0.00000E+0
 597.66	0.00000E+0
 598.00	0.00000E+0
 598.34	0.00000E+0
 598.67	0.00000E+0
 599.01	0.00000E+0
 599.35	0.00000E+0
 599.69	0.00000E+0
 600.02	0.00000E+0
 600.36	0.00000E+0
 600.69	0.00000E+0
 601.03	0.00000E+0
 601.37	0.00000E+0
 601.70	0.00000E+0
 602.04	0.00000E+0
 602.38	0.00000E+0
 602.71	0.00000E+0
 603.05	0.00000E+0
 603.39	0.00000E+0
 603.72	0.00000E+0
 604.06	0.00000E+0
 604.39	0.00000E+0
 604.73	0.00000E+0
 605.07	0.00000E+0
 605.40	0.00000E+0
 605.74	0.00000E+0
 606.07	0.00000E+0
 606.41	0.00000E+0
 606.75	0.00000E+0
 607.08	0.00000E+0
 607.42	0.00000E+0
 607.75	0.00000E+0
 608.09	0.00000E+0
 608.42	0.00000E+0
 608.76	0.00000E+0
 609.09	0.00000E+0
 609.43	0.00000E+0
 609.77	0.00000E+0
 610.10	0.00000E+0
 610.44	0.00000E+0
 610.77	0.00000E+0
 611.11	0.00000E+0
 611.44	0.00000E+0
 611.78	0.00000E+0
 612.11	0.00000E+0
 612.45	0.00000E+0
 612.78	0.00000E+0
 613.12	0.00000E+0
 613.45	0.00000E+0
 613.79	0.00000E+0
 614.12	0.00000E+0
 614.46	0.00000E+0
 614.79	0.00000E+0
 615.13	0.00000E+0
 615.46	0.00000E+0
 615.80	0.00000E+0
 616.13	0.00000E+0
 616.46	0.00000E+0
 616.80	0.00000E+0
 617.13	0.00000E+0
 617.47	0.00000E+0
 617.80	0.00000E+0
 618.14	0.00000E+0
 618.47	0.00000E+0
 618.81	0.00000E+0
 619.14	0.00000E+0
 619.47	0.00000E+0
 619.81	0.00000E+0
 620.14	0.00000E+0
 620.48	0.00000E+0
 620.81	0.00000E+0
 621.14	0.00000E+0
 621.48	0.00000E+0
 621.81	0.00000E+0
 622.15	0.00000E+0
 622.48	0.00000E+0
 622.81	0.00000E+0
 623.15	0.00000E+0
 623.48	0.00000E+0
 623.81	0.00000E+0
 624.15	0.00000E+0
 624.48	0.00000E+0
 624.81	0.00000E+0
 625.15	0.00000E+0
 625.48	0.00000E+0
 625.81	0.00000E+0
 626.15	0.00000E+0
 626.48	0.00000E+0
 626.81	0.00000E+0
 627.15	0.00000E+0
 627.48	0.00000E+0
 627.81	0.00000E+0
 628.15	0.00000E+0
 628.48	0.00000E+0
 628.81	0.00000E+0
 629.15	0.00000E+0
 629.48	0.00000E+0
 629.81	0.00000E+0
 630.14	0.00000E+0
 630.48	0.00000E+0
 630.81	0.00000E+0
 631.14	0.00000E+0
 631.47	0.00000E+0
 631.81	0.00000E+0
 632.14	0.00000E+0
 632.47	0.00000E+0
 632.80	0.00000E+0
 633.14	0.00000E+0
 633.47	0.00000E+0
 633.80	0.00000E+0
 634.13	0.00000E+0
 634.47	0.00000E+0
 634.80	0.00000E+0
 635.13	0.00000E+0
 635.46	0.00000E+0
 635.79	0.00000E+0
 636.13	0.00000E+0
 636.46	0.00000E+0
 636.79	0.00000E+0
 637.12	0.00000E+0
 637.45	0.00000E+0
 637.79	0.00000E+0
 638.12	0.00000E+0
 638.45	0.00000E+0
 638.78	0.00000E+0
 639.11	0.00000E+0
 639.44	0.00000E+0
 639.78	0.00000E+0
 640.11	0.00000E+0
 640.44	0.00000E+0
 640.77	0.00000E+0
 641.10	0.00000E+0
 641.43	0.00000E+0
 641.76	0.00000E+0
 642.10	0.00000E+0
 642.43	0.00000E+0
 642.76	0.00000E+0
 643.09	0.00000E+0
 643.42	0.00000E+0
 643.75	0.00000E+0
 644.08	0.00000E+0
 644.41	0.00000E+0
 644.74	0.00000E+0
 645.07	0.00000E+0
 645.40	0.00000E+0
 645.74	0.00000E+0
 646.07	0.00000E+0
 646.40	0.00000E+0
 646.73	0.00000E+0
 647.06	0.00000E+0
 647.39	0.00000E+0
 647.72	0.00000E+0
 648.05	0.00000E+0
 648.38	0.00000E+0
 648.71	0.00000E+0
 649.04	0.00000E+0
 649.37	0.00000E+0
 649.70	0.00000E+0
 650.03	0.00000E+0
 650.36	0.00000E+0
 650.69	0.00000E+0
 651.02	0.00000E+0
 651.35	0.00000E+0
 651.68	0.00000E+0
 652.01	0.00000E+0
 652.34	0.00000E+0
 652.67	0.00000E+0
 653.00	0.00000E+0
 653.33	0.00000E+0
 653.66	0.00000E+0
 653.99	0.00000E+0
 654.32	0.00000E+0
 654.65	0.00000E+0
 654.98	0.00000E+0
 655.31	0.00000E+0
 655.64	0.00000E+0
 655.97	0.00000E+0
 656.30	0.00000E+0
 656.63	0.00000E+0
 656.95	0.00000E+0
 657.28	0.00000E+0
 657.61	0.00000E+0
 657.94	0.00000E+0
 658.27	0.00000E+0
 658.60	0.00000E+0
 658.93	0.00000E+0
 659.26	0.00000E+0
 659.59	0.00000E+0
 659.92	0.00000E+0
 660.24	0.00000E+0
 660.57	0.00000E+0
 660.90	0.00000E+0
 661.23	0.00000E+0
 661.56	0.00000E+0
 661.89	0.00000E+0
 662.22	0.00000E+0
 662.54	0.00000E+0
 662.87	0.00000E+0
 663.20	0.00000E+0
 663.53	0.00000E+0
 663.86	0.00000E+0
 664.19	0.00000E+0
 664.51	0.00000E+0
 664.84	0.00000E+0
 665.17	0.00000E+0
 665.50	0.00000E+0
 665.83	0.00000E+0
 666.16	0.00000E+0
 666.48	0.00000E+0
 666.81	0.00000E+0
 667.14	0.00000E+0
 667.47	0.00000E+0
 667.79	0.00000E+0
 668.12	0.00000E+0
 668.45	0.00000E+0
 668.78	0.00000E+0
 669.11	0.00000E+0
 669.43	0.00000E+0
 669.76	0.00000E+0
 670.09	0.00000E+0
 670.42	0.00000E+0
 670.74	0.00000E+0
 671.07	0.00000E+0
 671.40	0.00000E+0
 671.72	0.00000E+0
 672.05	0.00000E+0
 672.38	0.00000E+0
 672.71	0.00000E+0
 673.03	0.00000E+0
 673.36	0.00000E+0
 673.69	0.00000E+0
 674.01	0.00000E+0
 674.34	0.00000E+0
 674.67	0.00000E+0
 674.99	0.00000E+0
 675.32	0.00000E+0
 675.65	0.00000E+0
 675.98	0.00000E+0
 676.30	0.00000E+0
 676.63	0.00000E+0
 676.95	0.00000E+0
 677.28	0.00000E+0
 677.61	0.00000E+0
 677.93	0.00000E+0
 678.26	0.00000E+0
 678.59	0.00000E+0
 678.91	0.00000E+0
 679.24	0.00000E+0
 679.57	0.00000E+0
 679.89	0.00000E+0
 680.22	0.00000E+0
 680.54	0.00000E+0
 680.87	0.00000E+0
 681.20	0.00000E+0
 681.52	0.00000E+0
 681.85	0.00000E+0
 682.17	0.00000E+0
 682.50	0.00000E+0
 682.82	0.00000E+0
 683.15	0.00000E+0
 683.48	0.00000E+0
 683.80	0.00000E+0
 684.13	0.00000E+0
 684.45	0.00000E+0
 684.78	0.00000E+0
 685.10	0.00000E+0
 685.43	0.00000E+0
 685.75	0.00000E+0
 686.08	0.00000E+0
 686.41	0.00000E+0
 686.73	0.00000E+0
 687.06	0.00000E+0
 687.38	0.00000E+0
 687.71	0.00000E+0
 688.03	0.00000E+0
 688.36	0.00000E+0
 688.68	0.00000E+0
 689.01	0.00000E+0
 689.33	0.00000E+0
 689.66	0.00000E+0
 689.98	0.00000E+0
 690.30	0.00000E+0
 690.63	0.00000E+0
 690.95	0.00000E+0
 691.28	0.00000E+0
 691.60	0.00000E+0
 691.93	0.00000E+0
 692.25	0.00000E+0
 692.58	0.00000E+0
 692.90	0.00000E+0
 693.23	0.00000E+0
 693.55	0.00000E+0
 693.87	0.00000E+0
 694.20	0.00000E+0
 694.52	0.00000E+0
 694.85	0.00000E+0
 695.17	0.00000E+0
 695.49	0.00000E+0
 695.82	0.00000E+0
 696.14	0.00000E+0
 696.47	0.00000E+0
 696.79	0.00000E+0
 697.11	0.00000E+0
 697.44	0.00000E+0
 697.76	0.00000E+0
 698.08	0.00000E+0
 698.41	0.00000E+0
 698.73	0.00000E+0
 699.05	0.00000E+0
 699.38	0.00000E+0
 699.70	0.00000E+0
 700.03	0.00000E+0
 700.35	0.00000E+0
 700.67	0.00000E+0
 700.99	0.00000E+0
 701.32	0.00000E+0
 701.64	0.00000E+0
 701.96	0.00000E+0
 702.29	0.00000E+0
 702.61	0.00000E+0
 702.93	0.00000E+0
 703.26	0.00000E+0
 703.58	0.00000E+0
 703.90	0.00000E+0
 704.22	0.00000E+0
 704.55	0.00000E+0
 704.87	0.00000E+0
 705.19	0.00000E+0
 705.52	0.00000E+0
 705.84	0.00000E+0
 706.16	0.00000E+0
 706.48	0.00000E+0
 706.81	0.00000E+0
 707.13	0.00000E+0
 707.45	0.00000E+0
 707.77	0.00000E+0
 708.09	0.00000E+0
 708.42	0.00000E+0
 708.74	0.00000E+0
 709.06	0.00000E+0
 709.38	0.00000E+0
 709.70	0.00000E+0
 710.03	0.00000E+0
 710.35	0.00000E+0
 710.67	0.00000E+0
 710.99	0.00000E+0
 711.31	0.00000E+0
 711.64	0.00000E+0
 711.96	0.00000E+0
 712.28	0.00000E+0
 712.60	0.00000E+0
 712.92	0.00000E+0
 713.24	0.00000E+0
 713.57	0.00000E+0
 713.89	0.00000E+0
 714.21	0.00000E+0
 714.53	0.00000E+0
 714.85	0.00000E+0
 715.17	0.00000E+0
 715.49	0.00000E+0
 715.81	0.00000E+0
 716.14	0.00000E+0
 716.46	0.00000E+0
 716.78	0.00000E+0
 717.10	0.00000E+0
 717.42	0.00000E+0
 717.74	0.00000E+0
 718.06	0.00000E+0
 718.38	0.00000E+0
 718.70	0.00000E+0
 719.02	0.00000E+0
 719.34	0.00000E+0
 719.66	0.00000E+0
 719.99	0.00000E+0
 720.31	0.00000E+0
 720.63	0.00000E+0
 720.95	0.00000E+0
 721.27	0.00000E+0
 721.59	0.00000E+0
 721.91	0.00000E+0
 722.23	0.00000E+0
 722.55	0.00000E+0
 722.87	0.00000E+0
 723.19	0.00000E+0
 723.51	0.00000E+0
 723.83	0.00000E+0
 724.15	0.00000E+0
 724.47	0.00000E+0
 724.79	0.00000E+0
 725.11	0.00000E+0
 725.43	0.00000E+0
 725.75	0.00000E+0
 726.07	0.00000E+0
 726.39	0.00000E+0
 726.71	0.00000E+0
 727.03	0.00000E+0
 727.35	0.00000E+0
 727.66	0.00000E+0
 727.98	0.00000E+0
 728.30	0.00000E+0
 728.62	0.00000E+0
 728.94	0.00000E+0
 729.26	0.00000E+0
 729.58	0.00000E+0
 729.90	0.00000E+0
 730.22	0.00000E+0
 730.54	0.00000E+0
 730.86	0.00000E+0
 731.18	0.00000E+0
 731.49	0.00000E+0
 731.81	0.00000E+0
 732.13	0.00000E+0
 732.45	0.00000E+0
 732.77	0.00000E+0
 733.09	0.00000E+0
 733.41	0.00000E+0
 733.73	0.00000E+0
 734.04	0.00000E+0
 734.36	0.00000E+0
 734.68	0.00000E+0
 735.00	0.00000E+0
 735.32	0.00000E+0
 735.64	0.00000E+0
 735.95	0.00000E+0
 736.27	0.00000E+0
 736.59	0.00000E+0
 736.91	0.00000E+0
 737.23	0.00000E+0
 737.54	0.00000E+0
 737.86	0.00000E+0
 738.18	0.00000E+0
 738.50	0.00000E+0
 738.82	0.00000E+0
 739.13	0.00000E+0
 739.45	0.00000E+0
 739.77	0.00000E+0
 740.09	0.00000E+0
 740.40	0.00000E+0
 740.72	0.00000E+0
 741.04	0.00000E+0
 741.36	0.00000E+0
 741.67	0.00000E+0
 741.99	0.00000E+0
 742.31	0.00000E+0
 742.63	0.00000E+0
 742.94	0.00000E+0
 743.26	0.00000E+0
 743.58	0.00000E+0
 743.90	0.00000E+0
 744.21	0.00000E+0
 744.53	0.00000E+0
 744.85	0.00000E+0
 745.16	0.00000E+0
 745.48	0.00000E+0
 745.80	0.00000E+0
 746.11	0.00000E+0
 746.43	0.00000E+0
 746.75	0.00000E+0
 747.06	0.00000E+0
 747.38	0.00000E+0
 747.70	0.00000E+0
 748.01	0.00000E+0
 748.33	0.00000E+0
 748.65	0.00000E+0
 748.96	0.00000E+0
 749.28	0.00000E+0
 749.60	0.00000E+0
 749.91	0.00000E+0
 750.23	0.00000E+0
 750.54	0.00000E+0
 750.86	0.00000E+0
 751.18	0.00000E+0
 751.49	0.00000E+0
 751.81	0.00000E+0
 752.12	0.00000E+0
 752.44	0.00000E+0
 752.76	0.00000E+0
 753.07	0.00000E+0
 753.39	0.00000E+0
 753.70	0.00000E+0
 754.02	0.00000E+0
 754.33	0.00000E+0
 754.65	0.00000E+0
 754.96	0.00000E+0
 755.28	0.00000E+0
 755.60	0.00000E+0
 755.91	0.00000E+0
 756.23	0.00000E+0
 756.54	0.00000E+0
 756.86	0.00000E+0
 757.17	0.00000E+0
 757.49	0.00000E+0
 757.80	0.00000E+0
 758.12	0.00000E+0
 758.43	0.00000E+0
 758.75	0.00000E+0
 759.06	0.00000E+0
 759.38	0.00000E+0
 759.69	0.00000E+0
 760.01	0.00000E+0
 760.32	0.00000E+0
 760.64	0.00000E+0
 760.95	0.00000E+0
 761.26	0.00000E+0
 761.58	0.00000E+0
 761.89	0.00000E+0
 762.21	0.00000E+0
 762.52	0.00000E+0
 762.84	0.00000E+0
 763.15	0.00000E+0
 763.47	0.00000E+0
 763.78	0.00000E+0
 764.09	0.00000E+0
 764.41	0.00000E+0
 764.72	0.00000E+0
 765.04	0.00000E+0
 765.35	0.00000E+0
 765.66	0.00000E+0
 765.98	0.00000E+0
 766.29	0.00000E+0
 766.60	0.00000E+0
 766.92	0.00000E+0
 767.23	0.00000E+0
 767.55	0.00000E+0
 767.86	0.00000E+0
 768.17	0.00000E+0
 768.49	0.00000E+0
 768.80	0.00000E+0
 769.11	0.00000E+0
 769.43	0.00000E+0
 769.74	0.00000E+0
 770.05	0.00000E+0
 770.37	0.00000E+0
 770.68	0.00000E+0
 770.99	0.00000E+0
 771.31	0.00000E+0
 771.62	0.00000E+0
 771.93	0.00000E+0
 772.24	0.00000E+0
 772.56	0.00000E+0
 772.87	0.00000E+0
 773.18	0.00000E+0
 773.50	0.00000E+0
 773.81	0.00000E+0
 774.12	0.00000E+0
 774.43	0.00000E+0
 774.75	0.00000E+0
 775.06	0.00000E+0
 775.37	0.00000E+0
 775.68	0.00000E+0
 776.00	0.00000E+0
 776.31	0.00000E+0
 776.62	0.00000E+0
 776.93	0.00000E+0
 777.24	0.00000E+0
 777.56	0.00000E+0
 777.87	0.00000E+0
 778.18	0.00000E+0
 778.49	0.00000E+0
 778.80	0.00000E+0
 779.12	0.00000E+0
 779.43	0.00000E+0
 779.74	0.00000E+0
 780.05	0.00000E+0
 780.36	0.00000E+0
 780.67	0.00000E+0
 780.99	0.00000E+0
 781.30	0.00000E+0
 781.61	0.00000E+0
 781.92	0.00000E+0
 782.23	0.00000E+0
 782.54	0.00000E+0
 782.85	0.00000E+0
 783.17	0.00000E+0
 783.48	0.00000E+0
 783.79	0.00000E+0
 784.10	0.00000E+0
 784.41	0.00000E+0
 784.72	0.00000E+0
 785.03	0.00000E+0
 785.34	0.00000E+0
 785.65	0.00000E+0
 785.97	0.00000E+0
 786.28	0.00000E+0
 786.59	0.00000E+0
 786.90	0.00000E+0
 787.21	0.00000E+0
 787.52	0.00000E+0
 787.83	0.00000E+0
 788.14	0.00000E+0
 788.45	0.00000E+0
 788.76	0.00000E+0
 789.07	0.00000E+0
 789.38	0.00000E+0
 789.69	0.00000E+0
 790.00	0.00000E+0
 790.31	0.00000E+0
 790.62	0.00000E+0
 790.93	0.00000E+0
 791.24	0.00000E+0
 791.55	0.00000E+0
 791.86	0.00000E+0
 792.17	0.00000E+0
 792.48	0.00000E+0
 792.79	0.00000E+0
 793.10	0.00000E+0
 793.41	0.00000E+0
 793.72	0.00000E+0
 794.03	0.00000E+0
 794.34	0.00000E+0
 794.65	0.00000E+0
 794.96	0.00000E+0
 795.27	0.00000E+0
 795.58	0.00000E+0
 795.89	0.00000E+0
 796.20	0.00000E+0
 796.51	0.00000E+0
 796.81	0.00000E+0
 797.12	0.00000E+0
 797.43	0.00000E+0
 797.74	0.00000E+0
 798.05	0.00000E+0
 798.36	0.00000E+0
 798.67	0.00000E+0
 798.98	0.00000E+0
 799.29	0.00000E+0
 799.59	0.00000E+0
 799.90	0.00000E+0
 800.21	0.00000E+0
 800.52	0.00000E+0
 800.83	0.00000E+0
 801.14	0.00000E+0
 801.45	0.00000E+0
 801.75	0.00000E+0
 802.06	0.00000E+0
 802.37	0.00000E+0
 802.68	0.00000E+0
 802.99	0.00000E+0
 803.30	0.00000E+0
 803.60	0.00000E+0
 803.91	0.00000E+0
 804.22	0.00000E+0
 804.53	0.00000E+0
 804.84	0.00000E+0
 805.14	0.00000E+0
 805.45	0.00000E+0
 805.76	0.00000E+0
 806.07	0.00000E+0
 806.37	0.00000E+0
 806.68	0.00000E+0
 806.99	0.00000E+0
 807.30	0.00000E+0
 807.60	0.00000E+0
 807.91	0.00000E+0
 808.22	0.00000E+0
 808.53	0.00000E+0
 808.83	0.00000E+0
 809.14	0.00000E+0
 809.45	0.00000E+0
 809.76	0.00000E+0
 810.06	0.00000E+0
 810.37	0.00000E+0
 810.68	0.00000E+0
 810.98	0.00000E+0
 811.29	0.00000E+0
 811.60	0.00000E+0
 811.90	0.00000E+0
 812.21	0.00000E+0
 812.52	0.00000E+0
 812.82	0.00000E+0
 813.13	0.00000E+0
 813.44	0.00000E+0
 813.74	0.00000E+0
 814.05	0.00000E+0
 814.36	0.00000E+0
 814.66	0.00000E+0
 814.97	0.00000E+0
 815.28	0.00000E+0
 815.58	0.00000E+0
 815.89	0.00000E+0
 816.20	0.00000E+0
 816.50	0.00000E+0
 816.81	0.00000E+0
 817.11	0.00000E+0
 817.42	0.00000E+0
 817.73	0.00000E+0
 818.03	0.00000E+0
 818.34	0.00000E+0
 818.64	0.00000E+0
 818.95	0.00000E+0
 819.25	0.00000E+0
 819.56	0.00000E+0
 819.86	0.00000E+0
 820.17	0.00000E+0
 820.48	0.00000E+0
 820.78	0.00000E+0
 821.09	0.00000E+0
 821.39	0.00000E+0
 821.70	0.00000E+0
 822.00	0.00000E+0
 822.31	0.00000E+0
 822.61	0.00000E+0
 822.92	0.00000E+0
 823.22	0.00000E+0
 823.53	0.00000E+0
 823.83	0.00000E+0
 824.14	0.00000E+0
 824.44	0.00000E+0
 824.75	0.00000E+0
 825.05	0.00000E+0
 825.36	0.00000E+0
 825.66	0.00000E+0
 825.97	0.00000E+0
 826.27	0.00000E+0
 826.58	0.00000E+0
 826.88	0.00000E+0
 827.18	0.00000E+0
 827.49	0.00000E+0
 827.79	0.00000E+0
 828.10	0.00000E+0
 828.40	0.00000E+0
 828.71	0.00000E+0
 829.01	0.00000E+0
 829.31	0.00000E+0
 829.62	0.00000E+0
 829.92	0.00000E+0
 830.23	0.00000E+0
 830.53	0.00000E+0
 830.83	0.00000E+0
 831.14	0.00000E+0
 831.44	0.00000E+0
 831.74	0.00000E+0
 832.05	0.00000E+0
 832.35	0.00000E+0
 832.65	0.00000E+0
 832.96	0.00000E+0
 833.26	0.00000E+0
 833.57	0.00000E+0
 833.87	0.00000E+0
 834.17	0.00000E+0
 834.47	0.00000E+0
 834.78	0.00000E+0
 835.08	0.00000E+0
 835.38	0.00000E+0
 835.69	0.00000E+0
 835.99	0.00000E+0
 836.29	0.00000E+0
 836.60	0.00000E+0
 836.90	0.00000E+0
 837.20	0.00000E+0
 837.50	0.00000E+0
 837.81	0.00000E+0
 838.11	0.00000E+0
 838.41	0.00000E+0
 838.72	0.00000E+0
 839.02	0.00000E+0
 839.32	0.00000E+0
 839.62	0.00000E+0
 839.92	0.00000E+0
 840.23	0.00000E+0
 840.53	0.00000E+0
 840.83	0.00000E+0
 841.13	0.00000E+0
 841.44	0.00000E+0
 841.74	0.00000E+0
 842.04	0.00000E+0
 842.34	0.00000E+0
 842.64	0.00000E+0
 842.95	0.00000E+0
 843.25	0.00000E+0
 843.55	0.00000E+0
 843.85	0.00000E+0
 844.15	0.00000E+0
 844.45	0.00000E+0
 844.76	0.00000E+0
 845.06	0.00000E+0
 845.36	0.00000E+0
 845.66	0.00000E+0
 845.96	0.00000E+0
 846.26	0.00000E+0
 846.56	0.00000E+0
 846.87	0.00000E+0
 847.17	0.00000E+0
 847.47	0.00000E+0
 847.77	0.00000E+0
 848.07	0.00000E+0
 848.37	0.00000E+0
 848.67	0.00000E+0
 848.97	0.00000E+0
 849.27	0.00000E+0
 849.57	0.00000E+0
 849.87	0.00000E+0
 850.18	0.00000E+0
 850.48	0.00000E+0
 850.78	0.00000E+0
 851.08	0.00000E+0
 851.38	0.00000E+0
 851.68	0.00000E+0
 851.98	0.00000E+0
 852.28	0.00000E+0
 852.58	0.00000E+0
 852.88	0.00000E+0
 853.18	0.00000E+0
 853.48	0.00000E+0
 853.78	0.00000E+0
 854.08	0.00000E+0
 854.38	0.00000E+0
 854.68	0.00000E+0
 854.98	0.00000E+0
 855.28	0.00000E+0
 855.58	0.00000E+0
 855.88	0.00000E+0
 856.18	0.00000E+0
 856.48	0.00000E+0
 856.78	0.00000E+0
 857.08	0.00000E+0
 857.38	0.00000E+0
 857.68	0.00000E+0
 857.98	0.00000E+0
 858.28	0.00000E+0
 858.57	0.00000E+0
 858.87	0.00000E+0
 859.17	0.00000E+0
 859.47	0.00000E+0
 859.77	0.00000E+0
 860.07	0.00000E+0
 860.37	0.00000E+0
 860.67	0.00000E+0
 860.97	0.00000E+0
 861.27	0.00000E+0
 861.57	0.00000E+0
 861.86	0.00000E+0
 862.16	0.00000E+0
 862.46	0.00000E+0
 862.76	0.00000E+0
 863.06	0.00000E+0
 863.36	0.00000E+0
 863.66	0.00000E+0
 863.95	0.00000E+0
 864.25	0.00000E+0
 864.55	0.00000E+0
 864.85	0.00000E+0
 865.15	0.00000E+0
 865.45	0.00000E+0
 865.74	0.00000E+0
 866.04	0.00000E+0
 866.34	0.00000E+0
 866.64	0.00000E+0
 866.94	0.00000E+0
 867.23	0.00000E+0
 867.53	0.00000E+0
 867.83	0.00000E+0
 868.13	0.00000E+0
 868.42	0.00000E+0
 868.72	0.00000E+0
 869.02	0.00000E+0
 869.32	0.00000E+0
 869.61	0.00000E+0
 869.91	0.00000E+0
 870.21	0.00000E+0
 870.51	0.00000E+0
 870.80	0.00000E+0
 871.10	0.00000E+0
 871.40	0.00000E+0
 871.70	0.00000E+0
 871.99	0.00000E+0
 872.29	0.00000E+0
 872.59	0.00000E+0
 872.88	0.00000E+0
 873.18	0.00000E+0
 873.48	0.00000E+0
 873.77	0.00000E+0
 874.07	0.00000E+0
 874.37	0.00000E+0
 874.66	0.00000E+0
 874.96	0.00000E+0
 875.26	0.00000E+0
 875.55	0.00000E+0
 875.85	0.00000E+0
 876.15	0.00000E+0
 876.44	0.00000E+0
 876.74	0.00000E+0
 877.03	0.00000E+0
