OOIBase32 Version 2.0.0.6 Data File
++++++++++++++++++++++++++++++++++++
Date: 01-23-2012, 23:11:43
User: Valued Ocean Optics Customer
Spectrometer Serial Number: USB2E2917
Spectrometer Channel: Master
Integration Time (msec): 5
Spectra Averaged: 10
Boxcar Smoothing: 5
Correct for Electrical Dark: Enabled
Time Normalized: Disabled
Dual-beam Reference: Disabled
Reference Channel: Master
Temperature: Not acquired
Spectrometer Type: S2000
ADC Type: USB2000
Number of Pixels in File: 2048
Graph Title: 
>>>>>Begin Spectral Data<<<<<
180.30	0.000
180.67	0.000
181.03	12.206
181.40	151.523
181.77	-2137.844
182.14	109.141
182.51	-466.577
182.88	-213.746
183.25	95.177
183.62	12.718
183.99	84.351
184.36	13.572
184.73	516.202
185.10	33.916
185.46	164.891
185.83	-137.815
186.20	-96.263
186.57	121.775
186.94	39.793
187.31	5.006
187.68	-10.211
188.05	-12.340
188.42	-40.260
188.78	-71.318
189.15	-219.068
189.52	96.792
189.89	58.180
190.26	72.696
190.63	50.065
191.00	55.537
191.37	52.292
191.73	57.270
192.10	60.610
192.47	54.123
192.84	57.979
193.21	66.554
193.58	66.620
193.94	63.096
194.31	47.432
194.68	37.592
195.05	16.237
195.42	0.653
195.79	-35.171
196.15	-44.219
196.52	-35.885
196.89	-46.506
197.26	-50.678
197.63	-31.076
198.00	-9.117
198.36	8.865
198.73	14.442
199.10	30.567
199.47	49.565
199.84	82.640
200.20	52.526
200.57	35.400
200.94	28.927
201.31	19.585
201.68	-1.258
202.04	-17.360
202.41	-29.294
202.78	-35.040
203.15	-45.419
203.51	-45.712
203.88	-46.512
204.25	-35.865
204.62	-41.217
204.98	-50.401
205.35	-51.580
205.72	-44.062
206.09	-35.717
206.46	-82.784
206.82	-73.169
207.19	-74.678
207.56	-119.348
207.92	-104.725
208.29	-110.813
208.66	-61.312
209.03	-58.103
209.39	-29.444
209.76	-28.633
210.13	-44.913
210.50	-14.340
210.86	-11.195
211.23	-7.360
211.60	-1.908
211.96	-10.250
212.33	-9.522
212.70	-27.682
213.07	-27.668
213.43	-65.373
213.80	-66.070
214.17	-35.871
214.53	-29.434
214.90	-8.795
215.27	-3.243
215.63	-4.271
216.00	3.837
216.37	2.604
216.74	-5.394
217.10	4.007
217.47	10.578
217.84	15.150
218.20	6.442
218.57	5.179
218.94	-8.008
219.30	-14.308
219.67	-19.929
220.04	-21.644
220.40	-26.963
220.77	-31.784
221.13	-31.124
221.50	-30.861
221.87	-32.116
222.23	-29.297
222.60	-34.581
222.97	-25.085
223.33	-16.429
223.70	-10.475
224.07	-9.523
224.43	-3.931
224.80	2.906
225.16	0.568
225.53	0.690
225.90	-1.085
226.26	0.213
226.63	2.616
226.99	2.375
227.36	1.827
227.73	2.499
228.09	2.022
228.46	2.860
228.82	2.836
229.19	3.639
229.56	3.476
229.92	5.498
230.29	6.718
230.65	5.238
231.02	1.714
231.38	-1.773
231.75	-3.409
232.12	-4.572
232.48	-6.357
232.85	-7.433
233.21	-9.019
233.58	-11.489
233.94	-11.725
234.31	-13.274
234.68	-11.511
235.04	-8.248
235.41	-4.637
235.77	-3.179
236.14	-1.572
236.50	0.513
236.87	0.521
237.23	1.718
237.60	2.049
237.96	1.132
238.33	0.075
238.69	-1.053
239.06	-0.886
239.42	-0.930
239.79	-1.214
240.15	-1.238
240.52	-0.761
240.88	-0.220
241.25	-0.598
241.61	0.382
241.98	0.538
242.34	1.032
242.71	1.805
243.07	1.677
243.44	1.520
243.80	1.455
244.17	1.575
244.53	1.076
244.90	1.283
245.26	1.390
245.63	1.037
245.99	0.983
246.36	0.860
246.72	0.742
247.09	0.548
247.45	0.646
247.81	0.764
248.18	0.719
248.54	0.822
248.91	0.072
249.27	0.226
249.64	0.712
250.00	0.836
250.36	0.901
250.73	0.444
251.09	0.690
251.46	0.676
251.82	0.387
252.19	0.237
252.55	-0.131
252.91	0.221
253.28	-0.056
253.64	-0.828
254.01	-0.751
254.37	-0.404
254.73	0.410
255.10	0.748
255.46	1.234
255.83	1.438
256.19	1.487
256.55	1.556
256.92	1.652
257.28	1.679
257.65	1.821
258.01	1.892
258.37	1.884
258.74	1.652
259.10	1.423
259.46	0.972
259.83	0.959
260.19	0.856
260.55	0.752
260.92	0.817
261.28	0.735
261.64	0.737
262.01	0.581
262.37	0.253
262.73	0.298
263.10	0.525
263.46	0.757
263.82	0.655
264.19	0.762
264.55	0.401
264.91	0.167
265.28	-0.203
265.64	-0.327
266.00	-0.573
266.37	-0.471
266.73	-0.567
267.09	-0.609
267.46	-0.576
267.82	-0.794
268.18	-0.611
268.54	-0.118
268.91	-0.019
269.27	0.247
269.63	0.589
270.00	0.761
270.36	0.970
270.72	1.080
271.08	1.076
271.45	1.044
271.81	1.162
272.17	0.944
272.53	0.751
272.90	0.785
273.26	0.994
273.62	0.739
273.98	0.664
274.35	0.528
274.71	0.681
275.07	0.807
275.43	0.963
275.80	0.839
276.16	0.911
276.52	1.191
276.88	1.158
277.25	0.761
277.61	0.685
277.97	0.505
278.33	0.505
278.69	0.107
279.06	0.136
279.42	0.161
279.78	0.404
280.14	0.441
280.50	0.296
280.87	0.270
281.23	0.380
281.59	0.489
281.95	0.682
282.31	0.750
282.68	0.818
283.04	0.696
283.40	0.789
283.76	0.827
284.12	0.955
284.48	1.058
284.85	1.018
285.21	1.061
285.57	1.068
285.93	1.172
286.29	0.935
286.65	1.033
287.02	1.429
287.38	1.438
287.74	1.322
288.10	1.213
288.46	1.054
288.82	1.104
289.18	1.221
289.54	1.075
289.91	1.040
290.27	1.201
290.63	1.445
290.99	1.254
291.35	1.039
291.71	1.257
292.07	1.166
292.43	1.133
292.79	1.200
293.16	1.049
293.52	1.213
293.88	1.249
294.24	1.341
294.60	1.257
294.96	1.070
295.32	1.276
295.68	1.261
296.04	1.257
296.40	1.371
296.76	1.302
297.12	1.333
297.49	1.333
297.85	1.206
298.21	1.050
298.57	0.819
298.93	0.878
299.29	0.577
299.65	0.472
300.01	0.480
300.37	0.484
300.73	0.601
301.09	0.681
301.45	0.753
301.81	0.906
302.17	1.123
302.53	1.188
302.89	1.163
303.25	1.342
303.61	1.362
303.97	1.286
304.33	1.278
304.69	1.281
305.05	1.250
305.41	1.110
305.77	1.005
306.13	0.850
306.49	0.855
306.85	0.944
307.21	0.933
307.57	1.017
307.93	1.072
308.29	1.083
308.65	1.050
309.01	1.068
309.37	1.079
309.73	1.128
310.09	1.323
310.45	1.368
310.81	1.373
311.17	1.363
311.53	1.298
311.89	1.410
312.25	1.420
312.61	1.395
312.96	1.404
313.32	1.524
313.68	1.442
314.04	1.264
314.40	1.354
314.76	1.304
315.12	1.299
315.48	1.348
315.84	1.251
316.20	1.179
316.56	1.046
316.92	1.015
317.27	0.959
317.63	1.051
317.99	0.894
318.35	0.745
318.71	0.727
319.07	0.769
319.43	0.853
319.79	0.994
320.15	0.987
320.50	1.160
320.86	1.188
321.22	1.165
321.58	1.179
321.94	1.297
322.30	1.337
322.66	1.348
323.01	1.275
323.37	1.119
323.73	1.006
324.09	1.012
324.45	1.020
324.81	0.902
325.17	0.935
325.52	0.787
325.88	0.759
326.24	0.766
326.60	0.794
326.96	0.905
327.31	0.837
327.67	0.808
328.03	0.887
328.39	0.776
328.75	0.924
329.11	0.954
329.46	1.093
329.82	1.126
330.18	1.150
330.54	1.078
330.90	0.917
331.25	1.009
331.61	1.108
331.97	1.085
332.33	1.153
332.68	1.104
333.04	1.031
333.40	0.977
333.76	0.943
334.11	0.921
334.47	0.946
334.83	0.980
335.19	0.948
335.54	0.907
335.90	0.883
336.26	0.909
336.62	0.903
336.97	0.812
337.33	0.746
337.69	0.771
338.05	0.730
338.40	0.710
338.76	0.734
339.12	0.797
339.48	0.757
339.83	0.769
340.19	0.746
340.55	0.806
340.90	0.839
341.26	0.840
341.62	0.785
341.97	0.804
342.33	0.852
342.69	0.844
343.04	0.799
343.40	0.729
343.76	0.576
344.12	0.536
344.47	0.487
344.83	0.506
345.19	0.534
345.54	0.573
345.90	0.531
346.26	0.549
346.61	0.617
346.97	0.651
347.32	0.745
347.68	0.886
348.04	0.855
348.39	0.805
348.75	0.874
349.11	0.894
349.46	0.829
349.82	0.859
350.18	0.803
350.53	0.732
350.89	0.653
351.24	0.600
351.60	0.621
351.96	0.702
352.31	0.678
352.67	0.666
353.02	0.644
353.38	0.704
353.74	0.715
354.09	0.681
354.45	0.705
354.80	0.723
355.16	0.780
355.52	0.759
355.87	0.698
356.23	0.739
356.58	0.685
356.94	0.705
357.29	0.745
357.65	0.794
358.00	0.848
358.36	0.836
358.72	0.840
359.07	0.822
359.43	0.820
359.78	0.848
360.14	0.826
360.49	0.839
360.85	0.866
361.20	0.809
361.56	0.726
361.91	0.681
362.27	0.705
362.62	0.737
362.98	0.737
363.33	0.672
363.69	0.653
364.04	0.700
364.40	0.675
364.75	0.613
365.11	0.625
365.46	0.647
365.82	0.714
366.17	0.672
366.53	0.640
366.88	0.660
367.24	0.725
367.59	0.732
367.95	0.727
368.30	0.730
368.66	0.781
369.01	0.774
369.37	0.794
369.72	0.794
370.08	0.830
370.43	0.863
370.78	0.841
371.14	0.803
371.49	0.874
371.85	0.878
372.20	0.939
372.56	0.950
372.91	0.970
373.26	0.997
373.62	0.960
373.97	0.974
374.33	0.907
374.68	0.907
375.03	0.947
375.39	0.847
375.74	0.828
376.10	0.840
376.45	0.844
376.80	0.876
377.16	0.836
377.51	0.887
377.87	0.884
378.22	0.897
378.57	0.881
378.93	0.900
379.28	0.967
379.63	0.945
379.99	0.943
380.34	0.926
380.70	0.920
381.05	0.956
381.40	0.921
381.76	0.943
382.11	0.987
382.46	1.055
382.82	1.063
383.17	1.014
383.52	1.045
383.88	1.039
384.23	1.029
384.58	1.020
384.94	0.992
385.29	1.020
385.64	1.021
385.99	1.027
386.35	1.013
386.70	1.022
387.05	1.038
387.41	1.026
387.76	0.981
388.11	0.993
388.47	0.982
388.82	1.046
389.17	1.025
389.52	0.995
389.88	0.995
390.23	0.972
390.58	0.960
390.93	0.961
391.29	0.976
391.64	1.008
391.99	1.019
392.34	1.066
392.70	1.007
393.05	1.016
393.40	1.067
393.75	1.051
394.11	1.054
394.46	1.005
394.81	1.033
395.16	0.996
395.52	0.978
395.87	0.967
396.22	0.942
396.57	0.955
396.92	0.931
397.28	0.882
397.63	0.880
397.98	0.876
398.33	0.900
398.68	0.876
399.04	0.905
399.39	0.897
399.74	0.913
400.09	0.876
400.44	0.893
400.80	0.888
401.15	0.872
401.50	0.875
401.85	0.890
402.20	0.884
402.55	0.908
402.90	0.876
403.26	0.886
403.61	0.866
403.96	0.875
404.31	0.859
404.66	0.889
405.01	0.880
405.36	0.873
405.72	0.842
406.07	0.853
406.42	0.796
406.77	0.812
407.12	0.797
407.47	0.785
407.82	0.810
408.17	0.790
408.53	0.789
408.88	0.786
409.23	0.772
409.58	0.772
409.93	0.754
410.28	0.782
410.63	0.759
410.98	0.775
411.33	0.786
411.68	0.781
412.03	0.814
412.38	0.792
412.73	0.848
413.09	0.883
413.44	0.921
413.79	0.954
414.14	0.986
414.49	1.049
414.84	1.059
415.19	1.075
415.54	1.104
415.89	1.107
416.24	1.152
416.59	1.160
416.94	1.171
417.29	1.195
417.64	1.198
417.99	1.215
418.34	1.236
418.69	1.259
419.04	1.269
419.39	1.272
419.74	1.288
420.09	1.294
420.44	1.300
420.79	1.311
421.14	1.304
421.49	1.323
421.84	1.307
422.19	1.301
422.54	1.292
422.89	1.290
423.24	1.280
423.59	1.265
423.94	1.249
424.29	1.232
424.64	1.227
424.99	1.205
425.34	1.161
425.68	1.168
426.03	1.123
426.38	1.110
426.73	1.109
427.08	1.096
427.43	1.093
427.78	1.107
428.13	1.109
428.48	1.122
428.83	1.139
429.18	1.165
429.53	1.154
429.87	1.159
430.22	1.155
430.57	1.161
430.92	1.163
431.27	1.166
431.62	1.142
431.97	1.140
432.32	1.108
432.67	1.088
433.01	1.064
433.36	1.056
433.71	1.052
434.06	1.045
434.41	1.040
434.76	1.055
435.11	1.064
435.45	1.073
435.80	1.068
436.15	1.080
436.50	1.098
436.85	1.118
437.20	1.119
437.54	1.119
437.89	1.133
438.24	1.130
438.59	1.118
438.94	1.109
439.29	1.087
439.63	1.101
439.98	1.087
440.33	1.066
440.68	1.076
441.03	1.093
441.37	1.125
441.72	1.120
442.07	1.119
442.42	1.131
442.76	1.141
443.11	1.162
443.46	1.165
443.81	1.183
444.16	1.208
444.50	1.203
444.85	1.191
445.20	1.172
445.55	1.174
445.89	1.173
446.24	1.149
446.59	1.110
446.94	1.085
447.28	1.057
447.63	1.040
447.98	1.017
448.32	0.996
448.67	0.984
449.02	0.961
449.37	0.930
449.71	0.920
450.06	0.915
450.41	0.941
450.75	0.952
451.10	0.955
451.45	0.932
451.79	0.911
452.14	0.902
452.49	0.890
452.84	0.892
453.18	0.894
453.53	0.890
453.88	0.890
454.22	0.882
454.57	0.900
454.92	0.906
455.26	0.928
455.61	0.969
455.95	0.999
456.30	1.023
456.65	1.061
456.99	1.090
457.34	1.107
457.69	1.122
458.03	1.139
458.38	1.142
458.73	1.146
459.07	1.135
459.42	1.118
459.76	1.079
460.11	1.040
460.46	1.000
460.80	0.965
461.15	0.936
461.49	0.907
461.84	0.883
462.19	0.847
462.53	0.843
462.88	0.849
463.22	0.825
463.57	0.841
463.91	0.850
464.26	0.862
464.61	0.867
464.95	0.855
465.30	0.856
465.64	0.853
465.99	0.859
466.33	0.861
466.68	0.851
467.02	0.855
467.37	0.857
467.71	0.845
468.06	0.833
468.41	0.823
468.75	0.828
469.10	0.836
469.44	0.825
469.79	0.802
470.13	0.767
470.48	0.760
470.82	0.756
471.17	0.734
471.51	0.729
471.86	0.712
472.20	0.703
472.55	0.690
472.89	0.669
473.23	0.658
473.58	0.670
473.92	0.673
474.27	0.667
474.61	0.653
474.96	0.663
475.30	0.677
475.65	0.678
475.99	0.681
476.34	0.691
476.68	0.702
477.02	0.718
477.37	0.719
477.71	0.751
478.06	0.787
478.40	0.853
478.75	0.920
479.09	1.006
479.43	1.090
479.78	1.172
480.12	1.246
480.47	1.319
480.81	1.383
481.15	1.445
481.50	1.503
481.84	1.558
482.19	1.609
482.53	1.650
482.87	1.675
483.22	1.673
483.56	1.645
483.90	1.606
484.25	1.557
484.59	1.517
484.94	1.475
485.28	1.427
485.62	1.374
485.97	1.319
486.31	1.275
486.65	1.236
487.00	1.217
487.34	1.215
487.68	1.217
488.03	1.220
488.37	1.213
488.71	1.197
489.06	1.180
489.40	1.181
489.74	1.169
490.09	1.149
490.43	1.123
490.77	1.088
491.11	1.038
491.46	1.003
491.80	0.965
492.14	0.916
492.49	0.888
492.83	0.848
493.17	0.794
493.51	0.749
493.86	0.705
494.20	0.672
494.54	0.654
494.88	0.671
495.23	0.674
495.57	0.684
495.91	0.704
496.25	0.715
496.60	0.724
496.94	0.717
497.28	0.714
497.62	0.712
497.97	0.696
498.31	0.701
498.65	0.673
498.99	0.640
499.33	0.618
499.68	0.610
500.02	0.597
500.36	0.596
500.70	0.604
501.04	0.600
501.39	0.578
501.73	0.584
502.07	0.591
502.41	0.610
502.75	0.640
503.09	0.661
503.44	0.673
503.78	0.683
504.12	0.677
504.46	0.694
504.80	0.720
505.14	0.760
505.49	0.793
505.83	0.795
506.17	0.820
506.51	0.843
506.85	0.852
507.19	0.865
507.53	0.875
507.87	0.902
508.22	0.895
508.56	0.890
508.90	0.890
509.24	0.893
509.58	0.905
509.92	0.917
510.26	0.918
510.60	0.928
510.94	0.935
511.28	0.944
511.63	0.952
511.97	0.965
512.31	0.984
512.65	1.002
512.99	1.023
513.33	1.082
513.67	1.112
514.01	1.170
514.35	1.224
514.69	1.289
515.03	1.345
515.37	1.411
515.71	1.482
516.05	1.541
516.39	1.577
516.73	1.617
517.07	1.629
517.41	1.653
517.75	1.654
518.09	1.655
518.43	1.645
518.77	1.653
519.11	1.645
519.45	1.635
519.79	1.641
520.13	1.650
520.47	1.668
520.81	1.696
521.15	1.757
521.49	1.815
521.83	1.874
522.17	1.945
522.51	2.022
522.85	2.115
523.19	2.223
523.53	2.343
523.87	2.480
524.21	2.608
524.55	2.725
524.89	2.817
525.23	2.911
525.57	2.986
525.91	3.059
526.25	3.123
526.58	3.176
526.92	3.221
527.26	3.255
527.60	3.277
527.94	3.289
528.28	3.293
528.62	3.289
528.96	3.281
529.30	3.291
529.64	3.291
529.97	3.285
530.31	3.278
530.65	3.281
530.99	3.276
531.33	3.279
531.67	3.278
532.01	3.287
532.35	3.292
532.68	3.301
533.02	3.295
533.36	3.290
533.70	3.284
534.04	3.284
534.38	3.276
534.71	3.265
535.05	3.248
535.39	3.251
535.73	3.243
536.07	3.261
536.41	3.278
536.74	3.298
537.08	3.326
537.42	3.379
537.76	3.423
538.10	3.464
538.43	3.521
538.77	3.574
539.11	3.616
539.45	3.658
539.79	3.686
540.12	3.712
540.46	3.727
540.80	3.734
541.14	3.717
541.47	3.701
541.81	3.691
542.15	3.654
542.49	3.623
542.82	3.579
543.16	3.547
543.50	3.520
543.84	3.478
544.17	3.443
544.51	3.415
544.85	3.392
545.18	3.380
545.52	3.347
545.86	3.324
546.20	3.301
546.53	3.287
546.87	3.250
547.21	3.221
547.54	3.188
547.88	3.163
548.22	3.149
548.55	3.131
548.89	3.117
549.23	3.121
549.56	3.132
549.90	3.142
550.24	3.128
550.57	3.131
550.91	3.132
551.25	3.147
551.58	3.148
551.92	3.133
552.26	3.120
552.59	3.110
552.93	3.100
553.27	3.098
553.60	3.072
553.94	3.055
554.27	3.040
554.61	3.013
554.95	2.991
555.28	2.977
555.62	2.956
555.95	2.961
556.29	2.935
556.63	2.905
556.96	2.878
557.30	2.894
557.63	2.894
557.97	2.874
558.31	2.848
558.64	2.829
558.98	2.820
559.31	2.836
559.65	2.811
559.98	2.809
560.32	2.801
560.65	2.778
560.99	2.741
561.33	2.727
561.66	2.725
562.00	2.725
562.33	2.707
562.67	2.707
563.00	2.686
563.34	2.686
563.67	2.674
564.01	2.651
564.34	2.642
564.68	2.639
565.01	2.611
565.35	2.592
565.68	2.567
566.02	2.544
566.35	2.500
566.69	2.474
567.02	2.458
567.36	2.410
567.69	2.386
568.03	2.375
568.36	2.340
568.69	2.313
569.03	2.296
569.36	2.290
569.70	2.276
570.03	2.287
570.37	2.262
570.70	2.243
571.04	2.230
571.37	2.213
571.70	2.169
572.04	2.147
572.37	2.137
572.71	2.099
573.04	2.061
573.37	2.046
573.71	2.001
574.04	1.976
574.38	1.933
574.71	1.914
575.04	1.885
575.38	1.863
575.71	1.827
576.05	1.800
576.38	1.788
576.71	1.746
577.05	1.711
577.38	1.683
577.71	1.623
578.05	1.581
578.38	1.543
578.71	1.511
579.05	1.466
579.38	1.417
579.71	1.380
580.05	1.334
580.38	1.306
580.71	1.267
581.05	1.234
581.38	1.236
581.71	1.233
582.05	1.226
582.38	1.218
582.71	1.227
583.04	1.251
583.38	1.217
583.71	1.218
584.04	1.226
584.38	1.224
584.71	1.238
585.04	1.256
585.37	1.248
585.71	1.246
586.04	1.267
586.37	1.290
586.70	1.312
587.04	1.359
587.37	1.369
587.70	1.371
588.03	1.379
588.37	1.368
588.70	1.348
589.03	1.348
589.36	1.347
589.69	1.312
590.03	1.282
590.36	1.221
590.69	1.172
591.02	1.136
591.35	1.106
591.69	1.100
592.02	1.108
592.35	1.130
592.68	1.161
593.01	1.159
593.35	1.169
593.68	1.176
594.01	1.204
594.34	1.211
594.67	1.234
595.00	1.249
595.34	1.227
595.67	1.192
596.00	1.158
596.33	1.101
596.66	1.068
596.99	1.021
597.32	0.972
597.65	0.946
597.99	0.913
598.32	0.857
598.65	0.793
598.98	0.789
599.31	0.790
599.64	0.804
599.97	0.798
600.30	0.807
600.63	0.827
600.96	0.854
601.30	0.836
601.63	0.869
601.96	0.887
602.29	0.923
602.62	0.901
602.95	0.896
603.28	0.884
603.61	0.852
603.94	0.824
604.27	0.829
604.60	0.797
604.93	0.802
605.26	0.764
605.59	0.747
605.92	0.733
606.25	0.719
606.58	0.697
606.91	0.656
607.24	0.675
607.57	0.668
607.90	0.608
608.23	0.575
608.56	0.525
608.89	0.494
609.22	0.453
609.55	0.400
609.88	0.356
610.21	0.305
610.54	0.263
610.87	0.207
611.20	0.150
611.53	0.126
611.86	0.100
612.19	0.055
612.52	-0.001
612.85	-0.027
613.18	-0.051
613.51	-0.080
613.84	-0.113
614.17	-0.133
614.49	-0.140
614.82	-0.165
615.15	-0.168
615.48	-0.160
615.81	-0.159
616.14	-0.149
616.47	-0.172
616.80	-0.234
617.13	-0.246
617.46	-0.265
617.78	-0.293
618.11	-0.328
618.44	-0.338
618.77	-0.403
619.10	-0.462
619.43	-0.485
619.76	-0.512
620.09	-0.510
620.41	-0.480
620.74	-0.467
621.07	-0.439
621.40	-0.412
621.73	-0.378
622.06	-0.348
622.38	-0.298
622.71	-0.246
623.04	-0.191
623.37	-0.149
623.70	-0.149
624.02	-0.104
624.35	-0.054
624.68	-0.035
625.01	0.015
625.34	0.029
625.66	0.035
625.99	0.036
626.32	0.018
626.65	0.002
626.98	-0.013
627.30	-0.004
627.63	-0.026
627.96	-0.078
628.29	-0.116
628.61	-0.184
628.94	-0.231
629.27	-0.265
629.60	-0.299
629.92	-0.293
630.25	-0.337
630.58	-0.382
630.91	-0.393
631.23	-0.432
631.56	-0.449
631.89	-0.483
632.21	-0.504
632.54	-0.528
632.87	-0.535
633.19	-0.539
633.52	-0.588
633.85	-0.593
634.18	-0.597
634.50	-0.654
634.83	-0.643
635.16	-0.690
635.48	-0.711
635.81	-0.732
636.14	-0.778
636.46	-0.834
636.79	-0.856
637.11	-0.898
637.44	-0.985
637.77	-1.030
638.09	-1.049
638.42	-1.119
638.75	-1.125
639.07	-1.133
639.40	-1.139
639.73	-1.153
640.05	-1.161
640.38	-1.156
640.70	-1.190
641.03	-1.167
641.36	-1.142
641.68	-1.157
642.01	-1.140
642.33	-1.156
642.66	-1.166
642.98	-1.203
643.31	-1.189
643.64	-1.181
643.96	-1.216
644.29	-1.168
644.61	-1.143
644.94	-1.157
645.26	-1.118
645.59	-1.089
645.91	-1.041
646.24	-0.982
646.56	-0.944
646.89	-0.906
647.22	-0.891
647.54	-0.875
647.87	-0.873
648.19	-0.893
648.52	-0.892
648.84	-0.874
649.17	-0.918
649.49	-0.937
649.82	-0.987
650.14	-0.977
650.47	-0.993
650.79	-0.990
651.11	-1.021
651.44	-1.030
651.76	-1.032
652.09	-1.013
652.41	-0.999
652.74	-0.960
653.06	-0.938
653.39	-0.906
653.71	-0.877
654.04	-0.871
654.36	-0.834
654.68	-0.749
655.01	-0.710
655.33	-0.654
655.66	-0.628
655.98	-0.622
656.30	-0.638
656.63	-0.617
656.95	-0.577
657.28	-0.577
657.60	-0.557
657.92	-0.576
658.25	-0.629
658.57	-0.617
658.90	-0.646
659.22	-0.698
659.54	-0.721
659.87	-0.766
660.19	-0.828
660.51	-0.918
660.84	-0.962
661.16	-1.030
661.48	-1.085
661.81	-1.079
662.13	-1.136
662.45	-1.108
662.78	-1.061
663.10	-1.038
663.42	-0.989
663.75	-0.953
664.07	-0.911
664.39	-0.941
664.72	-0.931
665.04	-0.898
665.36	-0.837
665.69	-0.802
666.01	-0.783
666.33	-0.752
666.65	-0.801
666.98	-0.717
667.30	-0.683
667.62	-0.617
667.94	-0.554
668.27	-0.483
668.59	-0.403
668.91	-0.373
669.23	-0.279
669.56	-0.250
669.88	-0.164
670.20	-0.074
670.52	-0.069
670.85	-0.027
671.17	0.019
671.49	0.074
671.81	0.154
672.13	0.212
672.46	0.243
672.78	0.243
673.10	0.314
673.42	0.343
673.74	0.441
674.07	0.553
674.39	0.698
674.71	0.757
675.03	0.923
675.35	1.049
675.67	1.152
676.00	1.261
676.32	1.355
676.64	1.449
676.96	1.592
677.28	1.687
677.60	1.813
677.92	1.884
678.25	1.961
678.57	1.990
678.89	1.994
679.21	2.075
679.53	2.165
679.85	2.255
680.17	2.327
680.49	2.335
680.81	2.390
681.13	2.359
681.46	2.414
681.78	2.556
682.10	2.632
682.42	2.740
682.74	2.807
683.06	2.861
683.38	2.937
683.70	3.050
684.02	3.154
684.34	3.260
684.66	3.364
684.98	3.419
685.30	3.453
685.62	3.519
685.94	3.622
686.26	3.624
686.58	3.662
686.90	3.697
687.22	3.658
687.54	3.651
687.86	3.557
688.18	3.494
688.50	3.437
688.82	3.295
689.14	3.231
689.46	3.126
689.78	3.106
690.10	3.004
690.42	2.892
690.74	2.825
691.06	2.773
691.38	2.784
691.70	2.883
692.02	2.902
692.34	2.976
692.66	2.957
692.98	2.939
693.30	2.969
693.62	3.056
693.94	3.093
694.26	3.148
694.57	3.190
694.89	3.314
695.21	3.376
695.53	3.437
695.85	3.502
696.17	3.612
696.49	3.737
696.81	3.844
697.13	3.895
697.44	4.029
697.76	4.150
698.08	4.327
698.40	4.396
698.72	4.505
699.04	4.655
699.36	4.792
699.67	4.907
699.99	4.987
700.31	5.118
700.63	5.288
700.95	5.484
701.27	5.671
701.58	5.755
701.90	5.929
702.22	6.055
702.54	6.175
702.86	6.514
703.17	6.711
703.49	7.036
703.81	7.346
704.13	7.601
704.45	7.815
704.76	8.107
705.08	8.406
705.40	8.663
705.72	9.032
706.03	9.375
706.35	9.579
706.67	9.943
706.99	10.223
707.30	10.438
707.62	10.764
707.94	11.061
708.26	11.361
708.57	11.667
708.89	12.071
709.21	12.279
709.53	12.641
709.84	13.015
710.16	13.366
710.48	13.697
710.79	14.094
711.11	14.479
711.43	14.849
711.74	15.228
712.06	15.573
712.38	15.890
712.69	16.211
713.01	16.536
713.33	16.901
713.64	17.315
713.96	17.703
714.28	18.060
714.59	18.553
714.91	19.007
715.23	19.465
715.54	19.871
715.86	20.375
716.17	20.924
716.49	21.365
716.81	21.834
717.12	22.189
717.44	22.643
717.76	23.113
718.07	23.395
718.39	23.706
718.70	24.014
719.02	24.407
719.33	24.651
719.65	24.995
719.97	25.332
720.28	25.599
720.60	26.045
720.91	26.413
721.23	26.796
721.54	27.275
721.86	27.802
722.17	28.224
722.49	28.646
722.81	29.120
723.12	29.505
723.44	30.053
723.75	30.572
724.07	30.899
724.38	31.327
724.70	31.711
725.01	31.982
725.33	32.358
725.64	32.691
725.96	32.996
726.27	33.192
726.59	33.635
726.90	33.931
727.22	34.054
727.53	34.443
727.84	34.810
728.16	35.056
728.47	35.289
728.79	35.613
729.10	35.883
729.42	36.196
729.73	36.473
730.05	36.652
730.36	36.845
730.67	37.199
730.99	37.414
731.30	37.591
731.62	37.865
731.93	38.244
732.24	38.319
732.56	38.535
732.87	38.770
733.19	39.069
733.50	39.391
733.81	39.755
734.13	40.024
734.44	40.250
734.76	40.565
735.07	40.851
735.38	41.012
735.70	41.395
736.01	41.642
736.32	41.999
736.64	42.338
736.95	42.600
737.26	42.779
737.58	43.019
737.89	43.267
738.20	43.460
738.52	43.600
738.83	43.862
739.14	44.035
739.45	44.237
739.77	44.274
740.08	44.416
740.39	44.428
740.71	44.443
741.02	44.405
741.33	44.561
741.64	44.598
741.96	44.881
742.27	44.889
742.58	44.972
742.90	45.229
743.21	45.418
743.52	45.701
743.83	45.833
744.14	46.004
744.46	46.413
744.77	46.618
745.08	46.748
745.39	46.684
745.71	46.808
746.02	46.973
746.33	46.978
746.64	47.015
746.95	46.981
747.27	47.248
747.58	47.432
747.89	47.583
748.20	47.550
748.51	47.619
748.82	47.759
749.14	47.843
749.45	47.846
749.76	47.958
750.07	48.069
750.38	48.130
750.69	47.944
751.01	47.935
751.32	47.716
751.63	47.921
751.94	47.700
752.25	47.687
752.56	47.675
752.87	47.608
753.18	47.514
753.49	47.549
753.81	47.530
754.12	47.693
754.43	47.880
754.74	47.987
755.05	47.919
755.36	48.290
755.67	48.431
755.98	48.877
756.29	49.219
756.60	49.691
756.91	49.740
757.22	49.918
757.53	50.227
757.84	50.331
758.15	50.545
758.46	50.822
758.77	50.812
759.09	50.758
759.40	50.530
759.71	50.494
760.02	50.267
760.33	50.290
760.64	50.316
760.95	50.361
761.26	50.262
761.57	50.211
761.88	49.985
762.18	50.011
762.49	49.981
762.80	49.927
763.11	49.899
763.42	49.869
763.73	49.823
764.04	49.704
764.35	49.448
764.66	49.388
764.97	49.265
765.28	49.261
765.59	49.065
765.90	48.978
766.21	48.790
766.52	48.655
766.83	48.523
767.14	48.433
767.44	48.182
767.75	47.965
768.06	47.850
768.37	47.533
768.68	47.495
768.99	47.486
769.30	47.475
769.61	47.505
769.91	47.265
770.22	47.041
770.53	46.931
770.84	47.029
771.15	47.100
771.46	46.737
771.77	46.793
772.07	46.692
772.38	46.440
772.69	46.343
773.00	46.338
773.31	46.516
773.61	46.505
773.92	46.676
774.23	46.655
774.54	46.539
774.85	46.723
775.15	46.579
775.46	46.454
775.77	46.610
776.08	46.785
776.39	46.671
776.69	46.590
777.00	46.809
777.31	46.968
777.62	46.881
777.92	46.773
778.23	46.918
778.54	47.138
778.85	47.144
779.15	46.910
779.46	46.714
779.77	46.963
780.07	47.024
780.38	47.062
780.69	46.742
781.00	46.944
781.30	46.946
781.61	46.535
781.92	46.885
782.22	47.091
782.53	47.453
782.84	47.485
783.14	47.526
783.45	47.477
783.76	47.635
784.06	47.722
784.37	47.556
784.68	47.828
784.98	48.395
785.29	48.065
785.60	48.047
785.90	48.083
786.21	48.032
786.51	48.179
786.82	48.474
787.13	48.619
787.43	48.668
787.74	48.736
788.04	48.996
788.35	48.969
788.66	49.034
788.96	49.031
789.27	49.036
789.57	49.324
789.88	49.286
790.19	48.919
790.49	48.433
790.80	48.556
791.10	48.580
791.41	48.285
791.71	48.456
792.02	48.427
792.32	48.112
792.63	48.071
792.93	47.839
793.24	47.784
793.54	47.801
793.85	47.868
794.15	47.660
794.46	47.849
794.76	48.101
795.07	47.875
795.37	48.157
795.68	48.594
795.98	48.788
796.29	49.023
796.59	48.757
796.90	49.021
797.20	49.083
797.51	49.160
797.81	48.933
798.12	48.679
798.42	48.697
798.72	48.605
799.03	48.329
799.33	48.331
799.64	48.425
799.94	48.849
800.25	48.869
800.55	49.094
800.85	49.655
801.16	49.728
801.46	49.796
801.77	49.668
802.07	49.829
802.37	49.899
802.68	49.491
802.98	49.401
803.28	49.449
803.59	49.495
803.89	50.065
804.20	49.730
804.50	49.977
804.80	49.816
805.11	49.961
805.41	50.211
805.71	50.579
806.02	50.723
806.32	50.475
806.62	50.405
806.93	50.282
807.23	49.933
807.53	50.140
807.83	50.228
808.14	50.935
808.44	51.079
808.74	50.427
809.05	50.147
809.35	50.304
809.65	50.684
809.95	50.710
810.26	50.659
810.56	50.598
810.86	50.614
811.16	50.582
811.47	50.965
811.77	51.183
812.07	51.505
812.37	51.755
812.68	51.949
812.98	52.099
813.28	52.460
813.58	52.836
813.88	52.388
814.19	53.095
814.49	53.445
814.79	52.895
815.09	53.259
815.39	53.347
815.70	53.504
816.00	53.690
816.30	53.427
816.60	53.667
816.90	53.448
817.20	53.999
817.50	53.152
817.81	52.743
818.11	52.598
818.41	52.482
818.71	52.409
819.01	52.624
819.31	52.990
819.61	53.277
819.92	53.457
820.22	53.772
820.52	53.961
820.82	54.330
821.12	54.730
821.42	55.066
821.72	55.335
822.02	55.772
822.32	56.108
822.62	56.334
822.92	56.559
823.22	56.801
823.52	57.026
823.83	57.141
824.13	57.195
824.43	57.006
824.73	57.066
825.03	57.021
825.33	57.003
825.63	56.727
825.93	56.497
826.23	56.502
826.53	56.314
826.83	56.156
827.13	56.337
827.43	56.470
827.73	57.012
828.03	57.297
828.33	57.518
828.63	57.421
828.93	57.657
829.23	57.774
829.53	57.389
829.83	57.171
830.13	57.080
830.42	56.487
830.72	55.808
831.02	55.348
831.32	54.659
831.62	54.624
831.92	54.492
832.22	54.529
832.52	54.414
832.82	54.642
833.12	54.649
833.42	54.694
833.72	54.774
834.01	55.262
834.31	55.339
834.61	55.609
834.91	55.853
835.21	56.008
835.51	56.056
835.81	56.113
836.11	56.128
836.40	56.681
836.70	56.678
837.00	56.825
837.30	56.060
837.60	56.048
837.90	56.690
838.19	56.127
838.49	55.597
838.79	55.063
839.09	54.802
839.39	54.892
839.68	54.322
839.98	53.349
840.28	52.812
840.58	52.991
840.88	53.102
841.17	52.268
841.47	52.512
841.77	52.401
842.07	52.585
842.36	52.564
842.66	51.710
842.96	50.321
843.26	50.940
843.55	51.273
843.85	51.658
844.15	51.223
844.45	50.517
844.74	50.700
845.04	50.510
845.34	49.912
845.63	50.380
845.93	51.418
846.23	54.254
846.53	54.680
846.82	54.873
847.12	54.874
847.42	54.052
847.71	51.985
848.01	51.036
848.31	50.821
848.60	50.761
848.90	48.879
849.19	47.597
849.49	46.344
849.79	46.213
850.08	45.329
850.38	45.788
850.68	45.659
850.97	48.391
851.27	48.807
851.56	50.229
851.86	49.670
852.16	51.756
852.45	52.185
852.75	52.122
853.04	53.205
853.34	54.746
853.64	53.615
853.93	54.107
854.23	54.118
854.52	54.381
854.82	53.934
855.11	55.381
855.41	55.505
855.70	56.584
856.00	54.959
856.30	54.435
856.59	53.638
856.89	54.732
857.18	54.338
857.48	52.612
857.77	51.946
858.07	51.929
858.36	50.006
858.66	49.061
858.95	48.147
859.25	48.503
859.54	47.709
859.84	47.594
860.13	46.168
860.42	44.768
860.72	45.532
861.01	44.911
861.31	46.322
861.60	48.447
861.90	49.808
862.19	50.808
862.49	50.765
862.78	52.458
863.07	52.627
863.37	52.906
863.66	53.789
863.96	55.294
864.25	55.228
864.54	53.840
864.84	54.932
865.13	54.361
865.43	53.879
865.72	43.989
866.01	49.319
866.31	75.333
866.60	51.004
866.89	56.072
>>>>>End Spectral Data<<<<<
