OOIBase32 Version 2.0.0.6 Data File
++++++++++++++++++++++++++++++++++++
Date: 01-23-2012, 23:12:10
User: Valued Ocean Optics Customer
Spectrometer Serial Number: USB2E2917
Spectrometer Channel: Master
Integration Time (msec): 5
Spectra Averaged: 10
Boxcar Smoothing: 5
Correct for Electrical Dark: Enabled
Time Normalized: Disabled
Dual-beam Reference: Disabled
Reference Channel: Master
Temperature: Not acquired
Spectrometer Type: S2000
ADC Type: USB2000
Number of Pixels in File: 2048
Graph Title: 
>>>>>Begin Spectral Data<<<<<
180.30	0.000
180.67	0.000
181.03	-138.740
181.40	356.931
181.77	-7866.590
182.14	110.999
182.51	-376.233
182.88	21.600
183.25	43.083
183.62	57.118
183.99	17.351
184.36	9.918
184.73	98.717
185.10	-61.142
185.46	-60.499
185.83	-294.073
186.20	1427.373
186.57	-12.016
186.94	153.874
187.31	33.113
187.68	-25.678
188.05	99.624
188.42	160.617
188.78	294.723
189.15	1128.046
189.52	-311.141
189.89	-121.558
190.26	-93.684
190.63	-46.022
191.00	-17.436
191.37	2.588
191.73	23.452
192.10	31.992
192.47	27.485
192.84	25.957
193.21	36.881
193.58	40.404
193.94	35.552
194.31	30.760
194.68	23.392
195.05	2.095
195.42	-26.991
195.79	-49.159
196.15	-71.989
196.52	-80.041
196.89	-83.683
197.26	-111.925
197.63	-97.425
198.00	-67.768
198.36	-56.725
198.73	-65.784
199.10	-57.043
199.47	-19.369
199.84	-19.039
200.20	-20.571
200.57	-16.207
200.94	-24.988
201.31	-11.871
201.68	-11.945
202.04	-30.762
202.41	-42.971
202.78	-71.782
203.15	-68.393
203.51	-84.125
203.88	-89.044
204.25	-63.957
204.62	-67.059
204.98	-72.837
205.35	-73.990
205.72	-75.361
206.09	-68.160
206.46	-125.866
206.82	-67.530
207.19	-75.917
207.56	-118.569
207.92	-107.500
208.29	-131.545
208.66	-102.914
209.03	-84.888
209.39	-68.615
209.76	-69.114
210.13	-117.699
210.50	-67.351
210.86	-53.471
211.23	-42.047
211.60	-14.430
211.96	-14.265
212.33	-21.356
212.70	-32.226
213.07	-45.520
213.43	-84.135
213.80	-100.699
214.17	-53.632
214.53	-48.445
214.90	-52.279
215.27	-47.603
215.63	-52.578
216.00	-46.056
216.37	-36.205
216.74	-43.782
217.10	-29.782
217.47	-18.513
217.84	-7.004
218.20	-13.984
218.57	-9.079
218.94	-7.252
219.30	-17.734
219.67	-24.620
220.04	-19.150
220.40	-21.020
220.77	-20.440
221.13	-15.442
221.50	-11.715
221.87	-17.381
222.23	-20.696
222.60	-23.615
222.97	-21.749
223.33	-9.177
223.70	-5.043
224.07	-10.021
224.43	-10.420
224.80	-6.827
225.16	-10.285
225.53	-11.832
225.90	-12.033
226.26	-7.954
226.63	-7.886
226.99	-6.043
227.36	-6.581
227.73	-5.545
228.09	-5.686
228.46	-3.370
228.82	-2.950
229.19	-2.129
229.56	-1.754
229.92	0.827
230.29	1.286
230.65	2.114
231.02	0.096
231.38	-3.248
231.75	-5.903
232.12	-6.201
232.48	-9.201
232.85	-10.637
233.21	-11.414
233.58	-13.813
233.94	-15.307
234.31	-15.857
234.68	-15.123
235.04	-15.166
235.41	-10.358
235.77	-6.952
236.14	-4.194
236.50	-1.890
236.87	-0.828
237.23	0.304
237.60	1.308
237.96	1.506
238.33	0.592
238.69	0.171
239.06	0.744
239.42	0.260
239.79	-1.159
240.15	-1.515
240.52	-1.522
240.88	-1.519
241.25	-1.957
241.61	-1.854
241.98	-2.148
242.34	-1.659
242.71	-1.309
243.07	-1.297
243.44	-1.207
243.80	-0.733
244.17	-0.615
244.53	-1.166
244.90	-1.054
245.26	-0.851
245.63	-0.955
245.99	-1.017
246.36	-1.213
246.72	-1.316
247.09	-1.710
247.45	-1.857
247.81	-1.622
248.18	-1.715
248.54	-1.254
248.91	-1.589
249.27	-1.232
249.64	-0.822
250.00	-0.359
250.36	-0.204
250.73	-0.136
251.09	0.387
251.46	0.332
251.82	-0.055
252.19	-0.099
252.55	-0.414
252.91	0.053
253.28	-0.636
253.64	-1.052
254.01	-1.423
254.37	-1.226
254.73	-0.855
255.10	-0.505
255.46	0.186
255.83	0.224
256.19	0.244
256.55	0.381
256.92	0.458
257.28	0.342
257.65	0.579
258.01	0.751
258.37	0.744
258.74	0.526
259.10	0.306
259.46	0.041
259.83	0.071
260.19	0.000
260.55	-0.003
260.92	-0.314
261.28	-0.184
261.64	-0.289
262.01	-0.354
262.37	-0.229
262.73	0.059
263.10	0.404
263.46	0.384
263.82	0.259
264.19	0.394
264.55	-0.172
264.91	-0.173
265.28	-0.165
265.64	-0.299
266.00	-0.391
266.37	-0.686
266.73	-1.008
267.09	-1.244
267.46	-1.153
267.82	-1.426
268.18	-1.355
268.54	-0.843
268.91	-0.596
269.27	-0.562
269.63	-0.169
270.00	-0.003
270.36	-0.047
270.72	0.288
271.08	0.311
271.45	0.204
271.81	0.389
272.17	0.251
272.53	0.233
272.90	0.302
273.26	0.488
273.62	0.143
273.98	-0.173
274.35	-0.180
274.71	-0.356
275.07	-0.363
275.43	-0.310
275.80	-0.223
276.16	-0.167
276.52	-0.337
276.88	-0.575
277.25	-0.931
277.61	-0.917
277.97	-0.880
278.33	-0.620
278.69	-0.785
279.06	-0.709
279.42	-0.734
279.78	-0.738
280.14	-0.788
280.50	-0.732
280.87	-0.650
281.23	-0.425
281.59	-0.424
281.95	-0.247
282.31	-0.206
282.68	-0.207
283.04	-0.196
283.40	-0.069
283.76	-0.061
284.12	0.059
284.48	0.147
284.85	0.223
285.21	0.261
285.57	0.248
285.93	0.221
286.29	-0.016
286.65	0.156
287.02	0.444
287.38	0.370
287.74	0.471
288.10	0.440
288.46	0.324
288.82	0.175
289.18	-0.009
289.54	0.124
289.91	0.156
290.27	0.331
290.63	0.477
290.99	0.262
291.35	0.351
291.71	0.310
292.07	0.197
292.43	0.265
292.79	0.489
293.16	0.430
293.52	0.583
293.88	0.765
294.24	0.802
294.60	0.784
294.96	0.713
295.32	0.768
295.68	0.654
296.04	0.777
296.40	0.745
296.76	0.715
297.12	0.665
297.49	0.324
297.85	-0.015
298.21	-0.177
298.57	-0.589
298.93	-0.654
299.29	-0.867
299.65	-0.780
300.01	-0.919
300.37	-0.957
300.73	-1.112
301.09	-0.966
301.45	-0.780
301.81	-0.625
302.17	-0.415
302.53	-0.321
302.89	-0.224
303.25	-0.156
303.61	-0.185
303.97	-0.233
304.33	-0.123
304.69	0.105
305.05	0.114
305.41	0.088
305.77	0.199
306.13	0.085
306.49	0.127
306.85	0.074
307.21	0.113
307.57	0.243
307.93	0.282
308.29	0.321
308.65	0.256
309.01	0.279
309.37	0.363
309.73	0.306
310.09	0.465
310.45	0.646
310.81	0.671
311.17	0.602
311.53	0.489
311.89	0.555
312.25	0.505
312.61	0.406
312.96	0.438
313.32	0.435
313.68	0.410
314.04	0.205
314.40	0.150
314.76	0.148
315.12	0.188
315.48	0.232
315.84	0.175
316.20	0.173
316.56	0.148
316.92	0.140
317.27	0.071
317.63	0.056
317.99	0.032
318.35	-0.021
318.71	-0.025
319.07	-0.070
319.43	-0.074
319.79	-0.008
320.15	-0.024
320.50	0.125
320.86	0.113
321.22	0.022
321.58	0.035
321.94	0.033
322.30	-0.040
322.66	-0.063
323.01	-0.066
323.37	-0.116
323.73	-0.130
324.09	-0.222
324.45	-0.267
324.81	-0.320
325.17	-0.222
325.52	-0.287
325.88	-0.317
326.24	-0.324
326.60	-0.318
326.96	-0.246
327.31	-0.299
327.67	-0.440
328.03	-0.337
328.39	-0.398
328.75	-0.273
329.11	-0.284
329.46	-0.197
329.82	-0.102
330.18	0.011
330.54	-0.012
330.90	-0.067
331.25	-0.058
331.61	0.077
331.97	0.004
332.33	0.126
332.68	0.123
333.04	0.143
333.40	0.106
333.76	0.063
334.11	0.008
334.47	0.053
334.83	0.084
335.19	0.132
335.54	0.111
335.90	0.159
336.26	0.050
336.62	-0.101
336.97	-0.209
337.33	-0.298
337.69	-0.220
338.05	-0.255
338.40	-0.286
338.76	-0.305
339.12	-0.268
339.48	-0.265
339.83	-0.311
340.19	-0.212
340.55	-0.130
340.90	-0.123
341.26	-0.098
341.62	-0.129
341.97	-0.108
342.33	-0.049
342.69	-0.025
343.04	-0.109
343.40	-0.226
343.76	-0.247
344.12	-0.279
344.47	-0.228
344.83	-0.131
345.19	-0.055
345.54	-0.075
345.90	-0.058
346.26	-0.028
346.61	0.054
346.97	0.099
347.32	0.278
347.68	0.382
348.04	0.385
348.39	0.225
348.75	0.243
349.11	0.226
349.46	0.200
349.82	0.198
350.18	0.129
350.53	0.017
350.89	0.018
351.24	-0.124
351.60	-0.129
351.96	-0.133
352.31	-0.060
352.67	-0.082
353.02	-0.052
353.38	-0.021
353.74	0.010
354.09	-0.028
354.45	0.017
354.80	0.002
355.16	0.081
355.52	0.018
355.87	-0.013
356.23	-0.007
356.58	0.012
356.94	-0.043
357.29	-0.060
357.65	-0.065
358.00	-0.003
358.36	-0.001
358.72	-0.011
359.07	0.005
359.43	0.076
359.78	0.120
360.14	0.128
360.49	0.091
360.85	0.149
361.20	0.134
361.56	0.103
361.91	0.079
362.27	0.020
362.62	0.058
362.98	0.056
363.33	0.009
363.69	-0.023
364.04	0.007
364.40	-0.002
364.75	-0.051
365.11	-0.032
365.46	-0.065
365.82	-0.072
366.17	-0.033
366.53	-0.057
366.88	-0.091
367.24	-0.049
367.59	-0.049
367.95	-0.046
368.30	-0.084
368.66	-0.066
369.01	-0.076
369.37	-0.037
369.72	0.041
370.08	0.074
370.43	0.086
370.78	0.121
371.14	0.042
371.49	0.068
371.85	0.047
372.20	0.103
372.56	0.095
372.91	0.115
373.26	0.127
373.62	0.064
373.97	0.056
374.33	0.058
374.68	0.065
375.03	0.135
375.39	0.088
375.74	0.095
376.10	0.073
376.45	0.118
376.80	0.156
377.16	0.144
377.51	0.158
377.87	0.181
378.22	0.187
378.57	0.190
378.93	0.203
379.28	0.276
379.63	0.249
379.99	0.307
380.34	0.280
380.70	0.267
381.05	0.320
381.40	0.316
381.76	0.295
382.11	0.313
382.46	0.314
382.82	0.334
383.17	0.317
383.52	0.335
383.88	0.283
384.23	0.289
384.58	0.280
384.94	0.259
385.29	0.286
385.64	0.325
385.99	0.337
386.35	0.336
386.70	0.314
387.05	0.287
387.41	0.318
387.76	0.331
388.11	0.328
388.47	0.311
388.82	0.323
389.17	0.299
389.52	0.286
389.88	0.301
390.23	0.294
390.58	0.306
390.93	0.329
391.29	0.325
391.64	0.362
391.99	0.389
392.34	0.411
392.70	0.405
393.05	0.416
393.40	0.412
393.75	0.379
394.11	0.404
394.46	0.380
394.81	0.355
395.16	0.334
395.52	0.297
395.87	0.281
396.22	0.286
396.57	0.264
396.92	0.239
397.28	0.206
397.63	0.204
397.98	0.173
398.33	0.175
398.68	0.181
399.04	0.182
399.39	0.172
399.74	0.156
400.09	0.137
400.44	0.144
400.80	0.165
401.15	0.152
401.50	0.154
401.85	0.160
402.20	0.132
402.55	0.152
402.90	0.126
403.26	0.144
403.61	0.151
403.96	0.164
404.31	0.149
404.66	0.142
405.01	0.132
405.36	0.113
405.72	0.093
406.07	0.101
406.42	0.053
406.77	0.050
407.12	0.038
407.47	0.041
407.82	0.021
408.17	0.016
408.53	0.009
408.88	0.029
409.23	0.031
409.58	0.033
409.93	0.054
410.28	0.066
410.63	0.068
410.98	0.057
411.33	0.047
411.68	0.072
412.03	0.111
412.38	0.102
412.73	0.122
413.09	0.134
413.44	0.161
413.79	0.168
414.14	0.194
414.49	0.235
414.84	0.275
415.19	0.294
415.54	0.315
415.89	0.334
416.24	0.389
416.59	0.410
416.94	0.435
417.29	0.455
417.64	0.462
417.99	0.483
418.34	0.495
418.69	0.510
419.04	0.518
419.39	0.517
419.74	0.511
420.09	0.504
420.44	0.498
420.79	0.501
421.14	0.509
421.49	0.523
421.84	0.521
422.19	0.524
422.54	0.510
422.89	0.515
423.24	0.509
423.59	0.519
423.94	0.509
424.29	0.509
424.64	0.504
424.99	0.483
425.34	0.459
425.68	0.444
426.03	0.420
426.38	0.426
426.73	0.420
427.08	0.421
427.43	0.400
427.78	0.412
428.13	0.409
428.48	0.417
428.83	0.417
429.18	0.431
429.53	0.435
429.87	0.427
430.22	0.409
430.57	0.423
430.92	0.413
431.27	0.423
431.62	0.396
431.97	0.394
432.32	0.376
432.67	0.367
433.01	0.342
433.36	0.329
433.71	0.348
434.06	0.342
434.41	0.310
434.76	0.331
435.11	0.320
435.45	0.321
435.80	0.329
436.15	0.346
436.50	0.370
436.85	0.396
437.20	0.387
437.54	0.377
437.89	0.379
438.24	0.396
438.59	0.384
438.94	0.379
439.29	0.368
439.63	0.373
439.98	0.350
440.33	0.329
440.68	0.315
441.03	0.333
441.37	0.347
441.72	0.357
442.07	0.342
442.42	0.350
442.76	0.363
443.11	0.376
443.46	0.377
443.81	0.396
444.16	0.410
444.50	0.414
444.85	0.408
445.20	0.391
445.55	0.380
445.89	0.373
446.24	0.355
446.59	0.332
446.94	0.323
447.28	0.298
447.63	0.277
447.98	0.250
448.32	0.237
448.67	0.217
449.02	0.195
449.37	0.178
449.71	0.186
450.06	0.180
450.41	0.174
450.75	0.172
451.10	0.166
451.45	0.140
451.79	0.124
452.14	0.112
452.49	0.117
452.84	0.128
453.18	0.128
453.53	0.100
453.88	0.097
454.22	0.108
454.57	0.113
454.92	0.125
455.26	0.147
455.61	0.192
455.95	0.223
456.30	0.225
456.65	0.239
456.99	0.263
457.34	0.291
457.69	0.313
458.03	0.319
458.38	0.331
458.73	0.328
459.07	0.325
459.42	0.299
459.76	0.266
460.11	0.244
460.46	0.217
460.80	0.184
461.15	0.153
461.49	0.102
461.84	0.084
462.19	0.054
462.53	0.036
462.88	0.038
463.22	0.027
463.57	0.028
463.91	0.041
464.26	0.057
464.61	0.067
464.95	0.053
465.30	0.061
465.64	0.063
465.99	0.064
466.33	0.070
466.68	0.062
467.02	0.062
467.37	0.045
467.71	0.017
468.06	0.007
468.41	-0.010
468.75	0.004
469.10	0.017
469.44	-0.004
469.79	-0.020
470.13	-0.053
470.48	-0.064
470.82	-0.074
471.17	-0.070
471.51	-0.074
471.86	-0.093
472.20	-0.108
472.55	-0.124
472.89	-0.154
473.23	-0.168
473.58	-0.164
473.92	-0.136
474.27	-0.148
474.61	-0.169
474.96	-0.164
475.30	-0.147
475.65	-0.161
475.99	-0.162
476.34	-0.165
476.68	-0.153
477.02	-0.128
477.37	-0.125
477.71	-0.115
478.06	-0.081
478.40	-0.002
478.75	0.057
479.09	0.131
479.43	0.223
479.78	0.291
480.12	0.362
480.47	0.415
480.81	0.458
481.15	0.503
481.50	0.552
481.84	0.597
482.19	0.628
482.53	0.657
482.87	0.671
483.22	0.669
483.56	0.654
483.90	0.630
484.25	0.601
484.59	0.581
484.94	0.555
485.28	0.520
485.62	0.482
485.97	0.436
486.31	0.403
486.65	0.376
487.00	0.353
487.34	0.347
487.68	0.335
488.03	0.331
488.37	0.313
488.71	0.298
489.06	0.277
489.40	0.268
489.74	0.263
490.09	0.249
490.43	0.230
490.77	0.201
491.11	0.163
491.46	0.135
491.80	0.104
492.14	0.061
492.49	0.032
492.83	-0.012
493.17	-0.063
493.51	-0.112
493.86	-0.157
494.20	-0.202
494.54	-0.234
494.88	-0.241
495.23	-0.245
495.57	-0.237
495.91	-0.217
496.25	-0.206
496.60	-0.196
496.94	-0.194
497.28	-0.196
497.62	-0.206
497.97	-0.209
498.31	-0.210
498.65	-0.214
498.99	-0.235
499.33	-0.251
499.68	-0.258
500.02	-0.278
500.36	-0.281
500.70	-0.295
501.04	-0.305
501.39	-0.306
501.73	-0.304
502.07	-0.282
502.41	-0.283
502.75	-0.267
503.09	-0.256
503.44	-0.246
503.78	-0.238
504.12	-0.226
504.46	-0.195
504.80	-0.163
505.14	-0.130
505.49	-0.100
505.83	-0.088
506.17	-0.062
506.51	-0.046
506.85	-0.034
507.19	-0.037
507.53	-0.028
507.87	-0.007
508.22	-0.002
508.56	0.005
508.90	-0.002
509.24	0.002
509.58	0.005
509.92	0.015
510.26	0.023
510.60	0.040
510.94	0.063
511.28	0.073
511.63	0.078
511.97	0.105
512.31	0.119
512.65	0.148
512.99	0.180
513.33	0.236
513.67	0.280
514.01	0.354
514.35	0.401
514.69	0.464
515.03	0.538
515.37	0.623
515.71	0.689
516.05	0.751
516.39	0.799
516.73	0.856
517.07	0.897
517.41	0.920
517.75	0.928
518.09	0.944
518.43	0.960
518.77	0.964
519.11	0.961
519.45	0.957
519.79	0.976
520.13	1.007
520.47	1.023
520.81	1.059
521.15	1.129
521.49	1.193
521.83	1.266
522.17	1.331
522.51	1.425
522.85	1.521
523.19	1.643
523.53	1.765
523.87	1.909
524.21	2.034
524.55	2.148
524.89	2.249
525.23	2.348
525.57	2.431
525.91	2.518
526.25	2.590
526.58	2.660
526.92	2.711
527.26	2.757
527.60	2.775
527.94	2.795
528.28	2.806
528.62	2.814
528.96	2.821
529.30	2.831
529.64	2.838
529.97	2.842
530.31	2.827
530.65	2.824
530.99	2.827
531.33	2.840
531.67	2.856
532.01	2.871
532.35	2.878
532.68	2.888
533.02	2.889
533.36	2.886
533.70	2.881
534.04	2.886
534.38	2.883
534.71	2.876
535.05	2.864
535.39	2.866
535.73	2.870
536.07	2.889
536.41	2.905
536.74	2.938
537.08	2.963
537.42	3.015
537.76	3.065
538.10	3.114
538.43	3.164
538.77	3.210
539.11	3.250
539.45	3.286
539.79	3.314
540.12	3.341
540.46	3.350
540.80	3.360
541.14	3.347
541.47	3.327
541.81	3.316
542.15	3.294
542.49	3.267
542.82	3.236
543.16	3.200
543.50	3.177
543.84	3.143
544.17	3.121
544.51	3.106
544.85	3.087
545.18	3.084
545.52	3.068
545.86	3.049
546.20	3.051
546.53	3.022
546.87	3.008
547.21	2.970
547.54	2.939
547.88	2.915
548.22	2.884
548.55	2.857
548.89	2.843
549.23	2.831
549.56	2.837
549.90	2.837
550.24	2.848
550.57	2.845
550.91	2.836
551.25	2.854
551.58	2.844
551.92	2.831
552.26	2.837
552.59	2.819
552.93	2.807
553.27	2.773
553.60	2.739
553.94	2.697
554.27	2.675
554.61	2.667
554.95	2.627
555.28	2.619
555.62	2.596
555.95	2.586
556.29	2.565
556.63	2.526
556.96	2.504
557.30	2.472
557.63	2.465
557.97	2.445
558.31	2.409
558.64	2.360
558.98	2.358
559.31	2.358
559.65	2.323
559.98	2.306
560.32	2.286
560.65	2.263
560.99	2.258
561.33	2.228
561.66	2.203
562.00	2.205
562.33	2.203
562.67	2.163
563.00	2.139
563.34	2.126
563.67	2.106
564.01	2.088
564.34	2.078
564.68	2.058
565.01	2.053
565.35	2.047
565.68	2.005
566.02	1.981
566.35	1.950
566.69	1.899
567.02	1.866
567.36	1.833
567.69	1.817
568.03	1.781
568.36	1.727
568.69	1.690
569.03	1.651
569.36	1.625
569.70	1.595
570.03	1.591
570.37	1.577
570.70	1.563
571.04	1.532
571.37	1.492
571.70	1.473
572.04	1.458
572.37	1.428
572.71	1.387
573.04	1.374
573.37	1.351
573.71	1.301
574.04	1.264
574.38	1.208
574.71	1.189
575.04	1.155
575.38	1.111
575.71	1.067
576.05	1.043
576.38	1.015
576.71	0.947
577.05	0.911
577.38	0.871
577.71	0.811
578.05	0.778
578.38	0.745
578.71	0.691
579.05	0.651
579.38	0.603
579.71	0.543
580.05	0.505
580.38	0.497
580.71	0.456
581.05	0.442
581.38	0.432
581.71	0.421
582.05	0.400
582.38	0.406
582.71	0.390
583.04	0.401
583.38	0.377
583.71	0.370
584.04	0.345
584.38	0.343
584.71	0.336
585.04	0.351
585.37	0.349
585.71	0.345
586.04	0.354
586.37	0.380
586.70	0.395
587.04	0.421
587.37	0.434
587.70	0.438
588.03	0.448
588.37	0.460
588.70	0.461
589.03	0.451
589.36	0.447
589.69	0.402
590.03	0.378
590.36	0.351
590.69	0.334
591.02	0.300
591.35	0.290
591.69	0.268
592.02	0.251
592.35	0.269
592.68	0.277
593.01	0.249
593.35	0.273
593.68	0.299
594.01	0.311
594.34	0.291
594.67	0.301
595.00	0.291
595.34	0.280
595.67	0.226
596.00	0.176
596.33	0.108
596.66	0.088
596.99	0.050
597.32	-0.023
597.65	-0.089
597.99	-0.128
598.32	-0.190
598.65	-0.234
598.98	-0.272
599.31	-0.244
599.64	-0.247
599.97	-0.214
600.30	-0.210
600.63	-0.199
600.96	-0.187
601.30	-0.166
601.63	-0.144
601.96	-0.104
602.29	-0.087
602.62	-0.074
602.95	-0.110
603.28	-0.130
603.61	-0.163
603.94	-0.194
604.27	-0.204
604.60	-0.243
604.93	-0.258
605.26	-0.270
605.59	-0.313
605.92	-0.330
606.25	-0.357
606.58	-0.345
606.91	-0.368
607.24	-0.377
607.57	-0.378
607.90	-0.413
608.23	-0.438
608.56	-0.469
608.89	-0.520
609.22	-0.559
609.55	-0.606
609.88	-0.657
610.21	-0.726
610.54	-0.781
610.87	-0.829
611.20	-0.888
611.53	-0.928
611.86	-0.951
612.19	-1.016
612.52	-1.058
612.85	-1.076
613.18	-1.095
613.51	-1.144
613.84	-1.173
614.17	-1.186
614.49	-1.177
614.82	-1.202
615.15	-1.216
615.48	-1.246
615.81	-1.258
616.14	-1.259
616.47	-1.289
616.80	-1.341
617.13	-1.340
617.46	-1.357
617.78	-1.383
618.11	-1.439
618.44	-1.465
618.77	-1.499
619.10	-1.492
619.43	-1.522
619.76	-1.563
620.09	-1.561
620.41	-1.560
620.74	-1.549
621.07	-1.517
621.40	-1.496
621.73	-1.461
622.06	-1.425
622.38	-1.387
622.71	-1.350
623.04	-1.283
623.37	-1.220
623.70	-1.194
624.02	-1.127
624.35	-1.081
624.68	-1.065
625.01	-1.042
625.34	-1.020
625.66	-0.995
625.99	-0.997
626.32	-1.027
626.65	-1.036
626.98	-1.050
627.30	-1.054
627.63	-1.100
627.96	-1.167
628.29	-1.221
628.61	-1.259
628.94	-1.308
629.27	-1.365
629.60	-1.422
629.92	-1.426
630.25	-1.478
630.58	-1.506
630.91	-1.541
631.23	-1.578
631.56	-1.558
631.89	-1.569
632.21	-1.579
632.54	-1.596
632.87	-1.613
633.19	-1.615
633.52	-1.674
633.85	-1.683
634.18	-1.718
634.50	-1.754
634.83	-1.761
635.16	-1.834
635.48	-1.868
635.81	-1.917
636.14	-1.947
636.46	-1.978
636.79	-2.014
637.11	-2.025
637.44	-2.091
637.77	-2.142
638.09	-2.193
638.42	-2.228
638.75	-2.226
639.07	-2.251
639.40	-2.261
639.73	-2.297
640.05	-2.324
640.38	-2.306
640.70	-2.342
641.03	-2.297
641.36	-2.280
641.68	-2.272
642.01	-2.267
642.33	-2.284
642.66	-2.293
642.98	-2.296
643.31	-2.275
643.64	-2.249
643.96	-2.247
644.29	-2.212
644.61	-2.222
644.94	-2.232
645.26	-2.183
645.59	-2.139
645.91	-2.075
646.24	-2.011
646.56	-1.977
646.89	-1.926
647.22	-1.908
647.54	-1.899
647.87	-1.879
648.19	-1.876
648.52	-1.828
648.84	-1.842
649.17	-1.879
649.49	-1.926
649.82	-1.947
650.14	-1.928
650.47	-1.967
650.79	-1.962
651.11	-1.995
651.44	-1.971
651.76	-1.964
652.09	-1.938
652.41	-1.911
652.74	-1.879
653.06	-1.841
653.39	-1.795
653.71	-1.787
654.04	-1.772
654.36	-1.740
654.68	-1.695
655.01	-1.657
655.33	-1.596
655.66	-1.600
655.98	-1.569
656.30	-1.557
656.63	-1.538
656.95	-1.516
657.28	-1.495
657.60	-1.495
657.92	-1.539
658.25	-1.519
658.57	-1.524
658.90	-1.539
659.22	-1.537
659.54	-1.563
659.87	-1.590
660.19	-1.628
660.51	-1.692
660.84	-1.762
661.16	-1.789
661.48	-1.781
661.81	-1.821
662.13	-1.903
662.45	-1.936
662.78	-1.939
663.10	-1.901
663.42	-1.835
663.75	-1.790
664.07	-1.761
664.39	-1.706
664.72	-1.679
665.04	-1.609
665.36	-1.541
665.69	-1.467
666.01	-1.409
666.33	-1.357
666.65	-1.347
666.98	-1.318
667.30	-1.250
667.62	-1.167
667.94	-1.124
668.27	-1.060
668.59	-1.014
668.91	-0.929
669.23	-0.835
669.56	-0.774
669.88	-0.690
670.20	-0.579
670.52	-0.503
670.85	-0.420
671.17	-0.326
671.49	-0.216
671.81	-0.093
672.13	-0.019
672.46	0.021
672.78	0.094
673.10	0.227
673.42	0.324
673.74	0.425
674.07	0.566
674.39	0.697
674.71	0.751
675.03	0.933
675.35	1.096
675.67	1.237
676.00	1.351
676.32	1.477
676.64	1.602
676.96	1.729
677.28	1.800
677.60	1.905
677.92	1.999
678.25	2.149
678.57	2.171
678.89	2.208
679.21	2.273
679.53	2.368
679.85	2.447
680.17	2.540
680.49	2.551
680.81	2.667
681.13	2.731
681.46	2.770
681.78	2.820
682.10	2.936
682.42	3.032
682.74	3.138
683.06	3.241
683.38	3.323
683.70	3.370
684.02	3.527
684.34	3.660
684.66	3.738
684.98	3.864
685.30	3.918
685.62	4.009
685.94	4.122
686.26	4.152
686.58	4.172
686.90	4.174
687.22	4.150
687.54	4.084
687.86	3.984
688.18	3.878
688.50	3.807
688.82	3.786
689.14	3.666
689.46	3.539
689.78	3.515
690.10	3.459
690.42	3.419
690.74	3.419
691.06	3.442
691.38	3.428
691.70	3.456
692.02	3.446
692.34	3.411
692.66	3.389
692.98	3.410
693.30	3.425
693.62	3.458
693.94	3.486
694.26	3.439
694.57	3.469
694.89	3.585
695.21	3.679
695.53	3.775
695.85	3.829
696.17	3.940
696.49	4.029
696.81	4.144
697.13	4.229
697.44	4.339
697.76	4.556
698.08	4.716
698.40	4.827
698.72	5.011
699.04	5.120
699.36	5.378
699.67	5.562
699.99	5.706
700.31	5.853
700.63	6.049
700.95	6.332
701.27	6.503
701.58	6.697
701.90	6.871
702.22	7.040
702.54	7.316
702.86	7.498
703.17	7.691
703.49	8.070
703.81	8.393
704.13	8.695
704.45	8.865
704.76	9.154
705.08	9.419
705.40	9.685
705.72	9.999
706.03	10.281
706.35	10.540
706.67	10.845
706.99	11.063
707.30	11.298
707.62	11.609
707.94	11.904
708.26	12.096
708.57	12.370
708.89	12.667
709.21	12.846
709.53	13.140
709.84	13.456
710.16	13.812
710.48	14.110
710.79	14.395
711.11	14.723
711.43	15.075
711.74	15.485
712.06	15.815
712.38	16.199
712.69	16.595
713.01	16.974
713.33	17.401
713.64	17.857
713.96	18.226
714.28	18.651
714.59	19.037
714.91	19.456
715.23	19.852
715.54	20.301
715.86	20.698
716.17	21.153
716.49	21.549
716.81	22.002
717.12	22.302
717.44	22.825
717.76	23.331
718.07	23.745
718.39	24.261
718.70	24.713
719.02	25.012
719.33	25.424
719.65	25.842
719.97	26.200
720.28	26.564
720.60	27.028
720.91	27.376
721.23	27.776
721.54	28.159
721.86	28.421
722.17	28.760
722.49	29.271
722.81	29.670
723.12	30.090
723.44	30.630
723.75	30.981
724.07	31.334
724.38	31.783
724.70	32.133
725.01	32.453
725.33	32.858
725.64	33.297
725.96	33.592
726.27	33.779
726.59	34.102
726.90	34.215
727.22	34.351
727.53	34.700
727.84	34.944
728.16	35.199
728.47	35.451
728.79	35.812
729.10	36.128
729.42	36.406
729.73	36.858
730.05	37.104
730.36	37.417
730.67	37.824
730.99	38.006
731.30	38.223
731.62	38.474
731.93	38.802
732.24	38.875
732.56	39.018
732.87	39.293
733.19	39.626
733.50	39.874
733.81	40.289
734.13	40.704
734.44	41.126
734.76	41.478
735.07	41.844
735.38	42.182
735.70	42.700
736.01	43.018
736.32	43.274
736.64	43.507
736.95	43.781
737.26	44.051
737.58	44.164
737.89	44.297
738.20	44.516
738.52	44.654
738.83	44.806
739.14	44.908
739.45	45.210
739.77	45.443
740.08	45.633
740.39	45.850
740.71	45.967
741.02	46.114
741.33	46.169
741.64	46.296
741.96	46.496
742.27	46.681
742.58	46.950
742.90	47.027
743.21	47.306
743.52	47.231
743.83	47.467
744.14	47.422
744.46	47.746
744.77	48.104
745.08	47.998
745.39	48.029
745.71	48.075
746.02	48.075
746.33	48.205
746.64	48.285
746.95	48.391
747.27	48.449
747.58	48.615
747.89	48.485
748.20	48.414
748.51	48.863
748.82	48.834
749.14	48.895
749.45	48.849
749.76	48.836
750.07	48.601
750.38	48.688
750.69	48.654
751.01	48.588
751.32	48.527
751.63	48.697
751.94	48.444
752.25	48.609
752.56	48.702
752.87	48.894
753.18	48.777
753.49	48.817
753.81	48.847
754.12	48.752
754.43	49.004
754.74	49.125
755.05	49.129
755.36	49.394
755.67	49.432
755.98	49.623
756.29	49.691
756.60	49.987
756.91	50.196
757.22	50.392
757.53	50.698
757.84	50.817
758.15	50.995
758.46	51.093
758.77	51.072
759.09	51.131
759.40	51.193
759.71	51.117
760.02	50.942
760.33	50.991
760.64	50.848
760.95	50.791
761.26	50.623
761.57	50.509
761.88	50.296
762.18	50.194
762.49	50.161
762.80	50.025
763.11	49.928
763.42	49.837
763.73	49.730
764.04	49.688
764.35	49.557
764.66	49.361
764.97	49.275
765.28	49.394
765.59	49.311
765.90	49.011
766.21	48.643
766.52	48.538
766.83	48.508
767.14	48.271
767.44	48.008
767.75	47.791
768.06	47.706
768.37	47.521
768.68	47.154
768.99	46.939
769.30	47.077
769.61	47.070
769.91	46.925
770.22	46.513
770.53	46.464
770.84	46.497
771.15	46.499
771.46	46.494
771.77	46.473
772.07	46.502
772.38	46.459
772.69	46.288
773.00	46.477
773.31	46.481
773.61	46.484
773.92	46.371
774.23	46.279
774.54	46.115
774.85	46.238
775.15	46.131
775.46	46.009
775.77	45.891
776.08	45.886
776.39	45.377
776.69	45.241
777.00	45.622
777.31	45.576
777.62	45.534
777.92	45.282
778.23	45.081
778.54	45.055
778.85	44.979
779.15	45.069
779.46	45.087
779.77	45.352
780.07	45.507
780.38	45.554
780.69	45.495
781.00	45.683
781.30	46.034
781.61	45.729
781.92	45.922
782.22	46.172
782.53	46.049
782.84	46.189
783.14	46.429
783.45	46.312
783.76	46.489
784.06	46.782
784.37	46.397
784.68	46.238
784.98	46.753
785.29	46.652
785.60	46.471
785.90	46.926
786.21	46.884
786.51	46.859
786.82	47.175
787.13	46.952
787.43	47.024
787.74	47.465
788.04	47.606
788.35	47.555
788.66	47.452
788.96	47.556
789.27	47.402
789.57	46.995
789.88	46.867
790.19	46.548
790.49	46.634
790.80	46.334
791.10	46.114
791.41	46.051
791.71	46.284
792.02	46.414
792.32	46.196
792.63	46.022
792.93	46.387
793.24	46.587
793.54	46.730
793.85	46.549
794.15	46.608
794.46	46.640
794.76	46.572
795.07	46.334
795.37	46.422
795.68	46.786
795.98	47.225
796.29	47.658
796.59	47.410
796.90	47.280
797.20	47.215
797.51	46.867
797.81	46.496
798.12	46.576
798.42	46.687
798.72	46.686
799.03	46.510
799.33	46.004
799.64	45.596
799.94	45.873
800.25	45.965
800.55	46.239
800.85	46.731
801.16	47.044
801.46	46.730
801.77	46.475
802.07	46.504
802.37	46.348
802.68	46.938
802.98	46.811
803.28	46.726
803.59	46.680
803.89	46.901
804.20	47.160
804.50	47.237
804.80	47.529
805.11	47.854
805.41	47.509
805.71	47.609
806.02	47.308
806.32	47.675
806.62	47.812
806.93	48.076
807.23	47.959
807.53	48.122
807.83	48.269
808.14	48.383
808.44	48.239
808.74	48.608
809.05	48.409
809.35	48.332
809.65	48.505
809.95	48.594
810.26	48.326
810.56	48.221
810.86	48.238
811.16	48.365
811.47	48.978
811.77	49.513
812.07	49.330
812.37	50.011
812.68	49.980
812.98	49.717
813.28	50.019
813.58	50.313
813.88	49.816
814.19	49.646
814.49	49.905
814.79	49.406
815.09	49.091
815.39	49.334
815.70	49.355
816.00	49.568
816.30	49.337
816.60	49.198
816.90	49.319
817.20	49.887
817.50	50.281
817.81	50.006
818.11	50.323
818.41	50.397
818.71	50.378
819.01	50.485
819.31	50.699
819.61	50.924
819.92	51.047
820.22	51.277
820.52	51.478
820.82	51.655
821.12	52.025
821.42	52.236
821.72	52.492
822.02	52.810
822.32	53.102
822.62	53.351
822.92	53.613
823.22	53.842
823.52	54.058
823.83	54.138
824.13	54.225
824.43	54.106
824.73	54.122
825.03	53.965
825.33	54.041
825.63	53.813
825.93	53.589
826.23	53.444
826.53	53.212
826.83	53.051
827.13	53.159
827.43	53.017
827.73	53.112
828.03	53.216
828.33	53.571
828.63	53.374
828.93	53.475
829.23	53.342
829.53	53.210
829.83	53.201
830.13	52.722
830.42	52.518
830.72	52.070
831.02	51.983
831.32	51.591
831.62	51.574
831.92	51.519
832.22	51.330
832.52	51.397
832.82	51.288
833.12	51.395
833.42	51.519
833.72	51.573
834.01	52.083
834.31	52.316
834.61	52.563
834.91	52.812
835.21	52.945
835.51	53.257
835.81	53.042
836.11	53.418
836.40	53.530
836.70	53.814
837.00	53.782
837.30	52.919
837.60	52.875
837.90	52.756
838.19	51.810
838.49	51.398
838.79	51.532
839.09	51.875
839.39	51.497
839.68	51.173
839.98	50.166
840.28	49.646
840.58	50.163
840.88	49.446
841.17	49.071
841.47	49.376
841.77	48.652
842.07	47.715
842.36	47.062
842.66	46.116
842.96	45.173
843.26	45.408
843.55	45.103
843.85	44.821
844.15	44.325
844.45	43.896
844.74	43.077
845.04	43.363
845.34	43.739
845.63	43.989
845.93	45.419
846.23	46.834
846.53	47.510
846.82	47.216
847.12	47.026
847.42	46.906
847.71	47.148
848.01	46.104
848.31	47.320
848.60	46.696
848.90	45.844
849.19	45.732
849.49	45.403
849.79	46.206
850.08	48.238
850.38	48.326
850.68	48.966
850.97	48.909
851.27	49.744
851.56	49.774
851.86	50.305
852.16	52.053
852.45	51.368
852.75	51.487
853.04	50.954
853.34	49.523
853.64	49.806
853.93	47.631
854.23	47.019
854.52	47.418
854.82	46.275
855.11	45.089
855.41	44.939
855.70	46.193
856.00	44.538
856.30	44.037
856.59	43.993
856.89	43.052
857.18	46.376
857.48	47.225
857.77	46.813
858.07	46.871
858.36	46.684
858.66	45.987
858.95	44.003
859.25	46.340
859.54	46.693
859.84	45.367
860.13	45.067
860.42	43.774
860.72	43.523
861.01	44.440
861.31	45.900
861.60	48.751
861.90	49.769
862.19	50.640
862.49	49.128
862.78	49.364
863.07	51.571
863.37	52.976
863.66	52.268
863.96	52.642
864.25	53.007
864.54	51.856
864.84	51.218
865.13	50.931
865.43	51.129
865.72	59.284
866.01	49.083
866.31	59.123
866.60	47.371
866.89	49.105
>>>>>End Spectral Data<<<<<
