OOIBase32 Version 2.0.0.6 Data File
++++++++++++++++++++++++++++++++++++
Date: 01-23-2012, 23:14:14
User: Valued Ocean Optics Customer
Spectrometer Serial Number: USB2E2917
Spectrometer Channel: Master
Integration Time (msec): 5
Spectra Averaged: 10
Boxcar Smoothing: 5
Correct for Electrical Dark: Enabled
Time Normalized: Disabled
Dual-beam Reference: Disabled
Reference Channel: Master
Temperature: Not acquired
Spectrometer Type: S2000
ADC Type: USB2000
Number of Pixels in File: 2048
Graph Title: 
>>>>>Begin Spectral Data<<<<<
180.30	0.000
180.67	0.000
181.03	-55.728
181.40	450.480
181.77	2047.706
182.14	66.981
182.51	-423.266
182.88	125.009
183.25	50.040
183.62	17.872
183.99	101.149
184.36	-17.617
184.73	-52.392
185.10	-39.660
185.46	-791.621
185.83	233.493
186.20	328.398
186.57	90.450
186.94	-8.088
187.31	73.452
187.68	-26.636
188.05	77.052
188.42	60.831
188.78	69.712
189.15	-14.770
189.52	112.770
189.89	44.798
190.26	64.832
190.63	49.638
191.00	53.662
191.37	56.473
191.73	53.308
192.10	52.110
192.47	42.674
192.84	37.079
193.21	35.005
193.58	28.357
193.94	20.924
194.31	13.110
194.68	5.694
195.05	1.413
195.42	-7.306
195.79	-16.073
196.15	-32.323
196.52	-35.275
196.89	-29.824
197.26	-36.822
197.63	-13.845
198.00	17.272
198.36	35.517
198.73	53.555
199.10	34.832
199.47	39.880
199.84	50.189
200.20	43.221
200.57	46.599
200.94	48.354
201.31	57.772
201.68	45.374
202.04	34.066
202.41	31.309
202.78	23.966
203.15	23.539
203.51	36.717
203.88	38.081
204.25	30.373
204.62	11.052
204.98	-13.999
205.35	-9.334
205.72	6.306
206.09	7.752
206.46	-37.210
206.82	-36.231
207.19	-32.221
207.56	-106.226
207.92	-85.398
208.29	-81.465
208.66	-33.350
209.03	-21.183
209.39	-11.139
209.76	-23.612
210.13	-59.433
210.50	-33.646
210.86	-24.645
211.23	-36.347
211.60	-20.022
211.96	-34.807
212.33	-16.884
212.70	-34.697
213.07	-45.783
213.43	-93.222
213.80	-84.268
214.17	-46.372
214.53	-27.840
214.90	-18.733
215.27	-15.055
215.63	-15.409
216.00	-14.862
216.37	-11.473
216.74	-17.420
217.10	-5.829
217.47	-3.650
217.84	0.021
218.20	-6.740
218.57	-7.834
218.94	-15.717
219.30	-16.922
219.67	-17.982
220.04	-16.463
220.40	-29.726
220.77	-32.335
221.13	-31.998
221.50	-25.854
221.87	-29.376
222.23	-27.009
222.60	-32.454
222.97	-26.658
223.33	-16.245
223.70	-12.365
224.07	-13.886
224.43	-7.864
224.80	-3.215
225.16	-6.103
225.53	-5.478
225.90	-6.013
226.26	-5.231
226.63	-2.967
226.99	-2.154
227.36	-1.775
227.73	1.043
228.09	1.653
228.46	2.988
228.82	3.196
229.19	3.607
229.56	2.515
229.92	3.515
230.29	4.110
230.65	3.512
231.02	1.947
231.38	-1.323
231.75	-5.291
232.12	-7.548
232.48	-11.578
232.85	-10.977
233.21	-9.782
233.58	-10.119
233.94	-9.908
234.31	-10.740
234.68	-11.750
235.04	-11.030
235.41	-9.456
235.77	-8.090
236.14	-5.646
236.50	-4.233
236.87	-4.703
237.23	-4.258
237.60	-4.627
237.96	-4.425
238.33	-4.575
238.69	-3.754
239.06	-3.382
239.42	-3.025
239.79	-2.828
240.15	-2.485
240.52	-1.846
240.88	-1.374
241.25	-1.168
241.61	-0.346
241.98	-0.916
242.34	-0.655
242.71	-0.413
243.07	-0.141
243.44	-0.180
243.80	-0.160
244.17	-0.281
244.53	-0.656
244.90	-0.770
245.26	-0.962
245.63	-1.205
245.99	-0.964
246.36	-0.794
246.72	-0.722
247.09	-0.945
247.45	-0.950
247.81	-0.867
248.18	-0.948
248.54	-0.688
248.91	-0.998
249.27	-0.977
249.64	-0.542
250.00	-0.316
250.36	-0.541
250.73	-1.000
251.09	-1.099
251.46	-1.420
251.82	-1.943
252.19	-1.792
252.55	-2.026
252.91	-1.450
253.28	-1.273
253.64	-1.657
254.01	-1.817
254.37	-1.323
254.73	-0.610
255.10	-0.336
255.46	0.294
255.83	0.689
256.19	0.705
256.55	0.550
256.92	0.596
257.28	0.531
257.65	0.730
258.01	0.834
258.37	0.690
258.74	0.358
259.10	0.284
259.46	0.102
259.83	0.078
260.19	-0.108
260.55	-0.029
260.92	-0.326
261.28	-0.317
261.64	-0.288
262.01	-0.402
262.37	-0.305
262.73	-0.088
263.10	0.339
263.46	0.298
263.82	0.033
264.19	0.167
264.55	-0.109
264.91	-0.070
265.28	-0.361
265.64	-0.806
266.00	-0.928
266.37	-0.975
266.73	-0.854
267.09	-1.055
267.46	-1.126
267.82	-1.215
268.18	-1.170
268.54	-1.040
268.91	-1.141
269.27	-0.777
269.63	-0.279
270.00	0.017
270.36	-0.070
270.72	-0.285
271.08	-0.460
271.45	-0.374
271.81	-0.286
272.17	-0.387
272.53	-0.162
272.90	0.134
273.26	0.250
273.62	-0.140
273.98	-0.483
274.35	-0.612
274.71	-0.509
275.07	-0.354
275.43	-0.245
275.80	-0.098
276.16	-0.167
276.52	-0.353
276.88	-0.485
277.25	-0.884
277.61	-1.005
277.97	-0.983
278.33	-0.717
278.69	-0.789
279.06	-0.792
279.42	-0.668
279.78	-0.590
280.14	-0.448
280.50	-0.301
280.87	-0.267
281.23	-0.242
281.59	-0.103
281.95	0.010
282.31	0.116
282.68	0.091
283.04	0.022
283.40	-0.017
283.76	-0.098
284.12	0.000
284.48	0.045
284.85	0.050
285.21	0.127
285.57	0.108
285.93	0.037
286.29	-0.257
286.65	-0.188
287.02	0.034
287.38	-0.038
287.74	-0.128
288.10	-0.291
288.46	-0.489
288.82	-0.624
289.18	-0.635
289.54	-0.683
289.91	-0.595
290.27	-0.357
290.63	-0.168
290.99	-0.241
291.35	-0.189
291.71	0.014
292.07	0.010
292.43	0.069
292.79	0.172
293.16	0.154
293.52	0.335
293.88	0.412
294.24	0.422
294.60	0.302
294.96	0.131
295.32	0.175
295.68	0.169
296.04	0.302
296.40	0.340
296.76	0.373
297.12	0.271
297.49	0.159
297.85	-0.037
298.21	-0.217
298.57	-0.380
298.93	-0.263
299.29	-0.501
299.65	-0.502
300.01	-0.564
300.37	-0.482
300.73	-0.330
301.09	-0.181
301.45	-0.071
301.81	0.130
302.17	0.243
302.53	0.229
302.89	0.124
303.25	0.359
303.61	0.247
303.97	0.189
304.33	0.169
304.69	0.057
305.05	0.000
305.41	-0.056
305.77	-0.073
306.13	-0.105
306.49	-0.056
306.85	0.106
307.21	0.080
307.57	0.183
307.93	0.325
308.29	0.423
308.65	0.411
309.01	0.452
309.37	0.489
309.73	0.459
310.09	0.595
310.45	0.690
310.81	0.625
311.17	0.577
311.53	0.495
311.89	0.439
312.25	0.347
312.61	0.275
312.96	0.263
313.32	0.256
313.68	0.218
314.04	0.113
314.40	0.091
314.76	0.048
315.12	0.000
315.48	0.068
315.84	-0.006
316.20	-0.036
316.56	0.013
316.92	-0.055
317.27	-0.160
317.63	-0.086
317.99	-0.184
318.35	-0.200
318.71	-0.100
319.07	-0.010
319.43	-0.025
319.79	0.083
320.15	0.031
320.50	0.063
320.86	0.125
321.22	0.168
321.58	0.099
321.94	0.072
322.30	0.063
322.66	0.019
323.01	-0.066
323.37	-0.129
323.73	-0.195
324.09	-0.235
324.45	-0.224
324.81	-0.279
325.17	-0.249
325.52	-0.198
325.88	-0.190
326.24	-0.162
326.60	-0.159
326.96	-0.131
327.31	-0.133
327.67	-0.174
328.03	-0.123
328.39	-0.228
328.75	-0.107
329.11	-0.126
329.46	-0.074
329.82	0.002
330.18	-0.063
330.54	-0.097
330.90	-0.093
331.25	-0.034
331.61	0.041
331.97	0.109
332.33	0.131
332.68	0.077
333.04	0.182
333.40	0.012
333.76	0.015
334.11	0.021
334.47	0.095
334.83	0.083
335.19	0.033
335.54	0.035
335.90	-0.051
336.26	-0.095
336.62	-0.111
336.97	-0.326
337.33	-0.303
337.69	-0.308
338.05	-0.368
338.40	-0.500
338.76	-0.494
339.12	-0.479
339.48	-0.534
339.83	-0.527
340.19	-0.463
340.55	-0.406
340.90	-0.327
341.26	-0.326
341.62	-0.354
341.97	-0.324
342.33	-0.314
342.69	-0.335
343.04	-0.366
343.40	-0.451
343.76	-0.522
344.12	-0.526
344.47	-0.579
344.83	-0.481
345.19	-0.485
345.54	-0.490
345.90	-0.373
346.26	-0.246
346.61	-0.157
346.97	-0.106
347.32	-0.004
347.68	-0.017
348.04	-0.087
348.39	-0.138
348.75	-0.165
349.11	-0.117
349.46	-0.141
349.82	-0.220
350.18	-0.342
350.53	-0.379
350.89	-0.451
351.24	-0.418
351.60	-0.352
351.96	-0.269
352.31	-0.255
352.67	-0.307
353.02	-0.333
353.38	-0.287
353.74	-0.271
354.09	-0.280
354.45	-0.272
354.80	-0.291
355.16	-0.305
355.52	-0.252
355.87	-0.253
356.23	-0.223
356.58	-0.194
356.94	-0.183
357.29	-0.155
357.65	-0.143
358.00	-0.078
358.36	-0.067
358.72	-0.008
359.07	-0.007
359.43	0.011
359.78	0.017
360.14	0.029
360.49	0.009
360.85	0.037
361.20	-0.012
361.56	-0.051
361.91	-0.042
362.27	-0.081
362.62	-0.101
362.98	-0.056
363.33	-0.082
363.69	-0.081
364.04	-0.100
364.40	-0.126
364.75	-0.142
365.11	-0.132
365.46	-0.146
365.82	-0.166
366.17	-0.177
366.53	-0.143
366.88	-0.203
367.24	-0.210
367.59	-0.215
367.95	-0.175
368.30	-0.164
368.66	-0.192
369.01	-0.199
369.37	-0.161
369.72	-0.112
370.08	-0.073
370.43	-0.079
370.78	-0.118
371.14	-0.160
371.49	-0.153
371.85	-0.206
372.20	-0.187
372.56	-0.184
372.91	-0.164
373.26	-0.153
373.62	-0.217
373.97	-0.210
374.33	-0.222
374.68	-0.172
375.03	-0.135
375.39	-0.196
375.74	-0.184
376.10	-0.188
376.45	-0.164
376.80	-0.156
377.16	-0.185
377.51	-0.155
377.87	-0.163
378.22	-0.212
378.57	-0.235
378.93	-0.226
379.28	-0.181
379.63	-0.179
379.99	-0.141
380.34	-0.144
380.70	-0.141
381.05	-0.080
381.40	-0.090
381.76	-0.072
382.11	-0.032
382.46	0.023
382.82	0.043
383.17	0.056
383.52	0.037
383.88	-0.010
384.23	-0.007
384.58	-0.026
384.94	-0.085
385.29	-0.049
385.64	-0.017
385.99	0.013
386.35	0.009
386.70	-0.013
387.05	-0.041
387.41	-0.025
387.76	-0.050
388.11	-0.069
388.47	-0.084
388.82	-0.040
389.17	-0.076
389.52	-0.098
389.88	-0.086
390.23	-0.116
390.58	-0.092
390.93	-0.075
391.29	-0.076
391.64	-0.018
391.99	0.030
392.34	0.043
392.70	0.033
393.05	0.023
393.40	0.017
393.75	0.007
394.11	0.014
394.46	-0.011
394.81	-0.003
395.16	-0.040
395.52	-0.055
395.87	-0.077
396.22	-0.083
396.57	-0.130
396.92	-0.141
397.28	-0.166
397.63	-0.218
397.98	-0.263
398.33	-0.284
398.68	-0.301
399.04	-0.273
399.39	-0.305
399.74	-0.319
400.09	-0.324
400.44	-0.279
400.80	-0.268
401.15	-0.276
401.50	-0.256
401.85	-0.227
402.20	-0.242
402.55	-0.255
402.90	-0.277
403.26	-0.285
403.61	-0.308
403.96	-0.309
404.31	-0.331
404.66	-0.318
405.01	-0.329
405.36	-0.327
405.72	-0.330
406.07	-0.319
406.42	-0.320
406.77	-0.310
407.12	-0.293
407.47	-0.276
407.82	-0.261
408.17	-0.257
408.53	-0.279
408.88	-0.280
409.23	-0.277
409.58	-0.307
409.93	-0.283
410.28	-0.272
410.63	-0.275
410.98	-0.286
411.33	-0.272
411.68	-0.275
412.03	-0.256
412.38	-0.259
412.73	-0.213
413.09	-0.196
413.44	-0.132
413.79	-0.109
414.14	-0.058
414.49	-0.003
414.84	0.054
415.19	0.082
415.54	0.122
415.89	0.150
416.24	0.206
416.59	0.220
416.94	0.247
417.29	0.276
417.64	0.288
417.99	0.308
418.34	0.324
418.69	0.332
419.04	0.348
419.39	0.360
419.74	0.363
420.09	0.378
420.44	0.389
420.79	0.397
421.14	0.399
421.49	0.426
421.84	0.426
422.19	0.435
422.54	0.442
422.89	0.454
423.24	0.448
423.59	0.446
423.94	0.435
424.29	0.437
424.64	0.427
424.99	0.416
425.34	0.381
425.68	0.360
426.03	0.326
426.38	0.304
426.73	0.273
427.08	0.261
427.43	0.286
427.78	0.289
428.13	0.280
428.48	0.291
428.83	0.291
429.18	0.307
429.53	0.321
429.87	0.337
430.22	0.339
430.57	0.352
430.92	0.364
431.27	0.356
431.62	0.343
431.97	0.354
432.32	0.350
432.67	0.344
433.01	0.321
433.36	0.310
433.71	0.305
434.06	0.298
434.41	0.288
434.76	0.294
435.11	0.285
435.45	0.303
435.80	0.302
436.15	0.322
436.50	0.337
436.85	0.370
437.20	0.367
437.54	0.365
437.89	0.372
438.24	0.381
438.59	0.375
438.94	0.379
439.29	0.356
439.63	0.365
439.98	0.338
440.33	0.323
440.68	0.327
441.03	0.343
441.37	0.363
441.72	0.376
442.07	0.379
442.42	0.385
442.76	0.405
443.11	0.429
443.46	0.431
443.81	0.450
444.16	0.477
444.50	0.465
444.85	0.470
445.20	0.457
445.55	0.450
445.89	0.443
446.24	0.431
446.59	0.398
446.94	0.380
447.28	0.353
447.63	0.330
447.98	0.296
448.32	0.294
448.67	0.265
449.02	0.245
449.37	0.226
449.71	0.228
450.06	0.225
450.41	0.238
450.75	0.242
451.10	0.261
451.45	0.236
451.79	0.218
452.14	0.208
452.49	0.204
452.84	0.209
453.18	0.205
453.53	0.177
453.88	0.180
454.22	0.185
454.57	0.201
454.92	0.211
455.26	0.250
455.61	0.298
455.95	0.326
456.30	0.351
456.65	0.372
456.99	0.402
457.34	0.428
457.69	0.444
458.03	0.453
458.38	0.455
458.73	0.446
459.07	0.441
459.42	0.413
459.76	0.385
460.11	0.359
460.46	0.324
460.80	0.285
461.15	0.268
461.49	0.234
461.84	0.220
462.19	0.200
462.53	0.185
462.88	0.174
463.22	0.165
463.57	0.171
463.91	0.169
464.26	0.185
464.61	0.204
464.95	0.199
465.30	0.200
465.64	0.199
465.99	0.199
466.33	0.201
466.68	0.194
467.02	0.188
467.37	0.175
467.71	0.167
468.06	0.164
468.41	0.151
468.75	0.140
469.10	0.128
469.44	0.103
469.79	0.089
470.13	0.065
470.48	0.059
470.82	0.052
471.17	0.054
471.51	0.034
471.86	0.018
472.20	0.009
472.55	0.003
472.89	0.000
473.23	-0.010
473.58	-0.018
473.92	-0.018
474.27	-0.028
474.61	-0.034
474.96	-0.037
475.30	-0.004
475.65	-0.012
475.99	-0.011
476.34	-0.009
476.68	-0.020
477.02	0.004
477.37	-0.004
477.71	0.020
478.06	0.058
478.40	0.132
478.75	0.192
479.09	0.262
479.43	0.349
479.78	0.422
480.12	0.492
480.47	0.569
480.81	0.615
481.15	0.673
481.50	0.721
481.84	0.765
482.19	0.799
482.53	0.833
482.87	0.852
483.22	0.847
483.56	0.833
483.90	0.808
484.25	0.778
484.59	0.758
484.94	0.730
485.28	0.698
485.62	0.661
485.97	0.620
486.31	0.590
486.65	0.558
487.00	0.545
487.34	0.536
487.68	0.526
488.03	0.513
488.37	0.493
488.71	0.490
489.06	0.477
489.40	0.474
489.74	0.471
490.09	0.455
490.43	0.429
490.77	0.403
491.11	0.362
491.46	0.341
491.80	0.313
492.14	0.287
492.49	0.262
492.83	0.232
493.17	0.188
493.51	0.142
493.86	0.108
494.20	0.087
494.54	0.082
494.88	0.106
495.23	0.102
495.57	0.119
495.91	0.139
496.25	0.138
496.60	0.150
496.94	0.152
497.28	0.162
497.62	0.160
497.97	0.163
498.31	0.151
498.65	0.135
498.99	0.136
499.33	0.147
499.68	0.148
500.02	0.149
500.36	0.149
500.70	0.164
501.04	0.166
501.39	0.177
501.73	0.190
502.07	0.224
502.41	0.244
502.75	0.279
503.09	0.298
503.44	0.322
503.78	0.357
504.12	0.384
504.46	0.421
504.80	0.461
505.14	0.504
505.49	0.547
505.83	0.581
506.17	0.633
506.51	0.664
506.85	0.709
507.19	0.741
507.53	0.764
507.87	0.816
508.22	0.852
508.56	0.884
508.90	0.913
509.24	0.945
509.58	0.967
509.92	0.991
510.26	1.027
510.60	1.050
510.94	1.080
511.28	1.110
511.63	1.140
511.97	1.179
512.31	1.222
512.65	1.261
512.99	1.324
513.33	1.421
513.67	1.495
514.01	1.579
514.35	1.657
514.69	1.756
515.03	1.853
515.37	1.940
515.71	2.030
516.05	2.120
516.39	2.201
516.73	2.270
517.07	2.316
517.41	2.373
517.75	2.417
518.09	2.453
518.43	2.492
518.77	2.528
519.11	2.568
519.45	2.600
519.79	2.655
520.13	2.708
520.47	2.775
520.81	2.855
521.15	2.953
521.49	3.049
521.83	3.167
522.17	3.265
522.51	3.381
522.85	3.509
523.19	3.672
523.53	3.823
523.87	4.008
524.21	4.182
524.55	4.328
524.89	4.458
525.23	4.593
525.57	4.707
525.91	4.828
526.25	4.922
526.58	5.017
526.92	5.091
527.26	5.156
527.60	5.192
527.94	5.220
528.28	5.254
528.62	5.275
528.96	5.295
529.30	5.314
529.64	5.326
529.97	5.352
530.31	5.357
530.65	5.365
530.99	5.373
531.33	5.404
531.67	5.434
532.01	5.455
532.35	5.488
532.68	5.500
533.02	5.512
533.36	5.513
533.70	5.518
534.04	5.534
534.38	5.537
534.71	5.555
535.05	5.553
535.39	5.561
535.73	5.577
536.07	5.597
536.41	5.632
536.74	5.675
537.08	5.727
537.42	5.799
537.76	5.854
538.10	5.928
538.43	5.983
538.77	6.050
539.11	6.091
539.45	6.137
539.79	6.174
540.12	6.202
540.46	6.221
540.80	6.233
541.14	6.216
541.47	6.202
541.81	6.183
542.15	6.167
542.49	6.134
542.82	6.110
543.16	6.071
543.50	6.059
543.84	6.036
544.17	6.016
544.51	5.998
544.85	5.976
545.18	5.972
545.52	5.962
545.86	5.936
546.20	5.928
546.53	5.922
546.87	5.915
547.21	5.890
547.54	5.858
547.88	5.845
548.22	5.825
548.55	5.822
548.89	5.805
549.23	5.803
549.56	5.818
549.90	5.828
550.24	5.841
550.57	5.848
550.91	5.830
551.25	5.862
551.58	5.846
551.92	5.832
552.26	5.831
552.59	5.825
552.93	5.800
553.27	5.783
553.60	5.763
553.94	5.726
554.27	5.694
554.61	5.689
554.95	5.643
555.28	5.638
555.62	5.613
555.95	5.583
556.29	5.555
556.63	5.513
556.96	5.472
557.30	5.446
557.63	5.396
557.97	5.353
558.31	5.295
558.64	5.252
558.98	5.226
559.31	5.214
559.65	5.189
559.98	5.156
560.32	5.117
560.65	5.091
560.99	5.052
561.33	5.031
561.66	5.004
562.00	4.985
562.33	4.953
562.67	4.912
563.00	4.864
563.34	4.840
563.67	4.810
564.01	4.806
564.34	4.763
564.68	4.718
565.01	4.682
565.35	4.645
565.68	4.609
566.02	4.562
566.35	4.499
566.69	4.438
567.02	4.394
567.36	4.333
567.69	4.279
568.03	4.245
568.36	4.195
568.69	4.148
569.03	4.097
569.36	4.044
569.70	4.009
570.03	3.989
570.37	3.964
570.70	3.906
571.04	3.867
571.37	3.807
571.70	3.755
572.04	3.706
572.37	3.659
572.71	3.616
573.04	3.567
573.37	3.522
573.71	3.472
574.04	3.420
574.38	3.351
574.71	3.295
575.04	3.254
575.38	3.194
575.71	3.130
576.05	3.075
576.38	3.032
576.71	2.989
577.05	2.939
577.38	2.876
577.71	2.812
578.05	2.776
578.38	2.742
578.71	2.684
579.05	2.658
579.38	2.615
579.71	2.576
580.05	2.534
580.38	2.487
580.71	2.441
581.05	2.425
581.38	2.400
581.71	2.384
582.05	2.347
582.38	2.332
582.71	2.291
583.04	2.294
583.38	2.267
583.71	2.246
584.04	2.233
584.38	2.234
584.71	2.214
585.04	2.227
585.37	2.217
585.71	2.227
586.04	2.218
586.37	2.231
586.70	2.236
587.04	2.260
587.37	2.255
587.70	2.237
588.03	2.242
588.37	2.238
588.70	2.211
589.03	2.192
589.36	2.173
589.69	2.142
590.03	2.111
590.36	2.080
590.69	2.026
591.02	2.005
591.35	1.981
591.69	1.957
592.02	1.924
592.35	1.917
592.68	1.914
593.01	1.910
593.35	1.929
593.68	1.944
594.01	1.929
594.34	1.921
594.67	1.932
595.00	1.925
595.34	1.888
595.67	1.862
596.00	1.849
596.33	1.794
596.66	1.746
596.99	1.702
597.32	1.634
597.65	1.603
597.99	1.560
598.32	1.486
598.65	1.441
598.98	1.415
599.31	1.392
599.64	1.380
599.97	1.383
600.30	1.388
600.63	1.395
600.96	1.404
601.30	1.416
601.63	1.438
601.96	1.448
602.29	1.457
602.62	1.450
602.95	1.440
603.28	1.410
603.61	1.385
603.94	1.341
604.27	1.309
604.60	1.283
604.93	1.244
605.26	1.210
605.59	1.178
605.92	1.150
606.25	1.115
606.58	1.072
606.91	1.029
607.24	1.027
607.57	1.012
607.90	0.975
608.23	0.928
608.56	0.894
608.89	0.834
609.22	0.777
609.55	0.715
609.88	0.652
610.21	0.616
610.54	0.565
610.87	0.482
611.20	0.405
611.53	0.356
611.86	0.306
612.19	0.240
612.52	0.199
612.85	0.169
613.18	0.147
613.51	0.100
613.84	0.044
614.17	0.007
614.49	0.005
614.82	-0.036
615.15	-0.072
615.48	-0.055
615.81	-0.073
616.14	-0.081
616.47	-0.117
616.80	-0.179
617.13	-0.189
617.46	-0.214
617.78	-0.241
618.11	-0.285
618.44	-0.298
618.77	-0.343
619.10	-0.389
619.43	-0.399
619.76	-0.430
620.09	-0.387
620.41	-0.372
620.74	-0.345
621.07	-0.297
621.40	-0.273
621.73	-0.253
622.06	-0.228
622.38	-0.193
622.71	-0.172
623.04	-0.141
623.37	-0.086
623.70	-0.103
624.02	-0.063
624.35	-0.042
624.68	-0.041
625.01	-0.017
625.34	0.029
625.66	0.054
625.99	0.080
626.32	0.066
626.65	0.063
626.98	0.024
627.30	0.019
627.63	0.001
627.96	-0.055
628.29	-0.096
628.61	-0.128
628.94	-0.199
629.27	-0.244
629.60	-0.306
629.92	-0.304
630.25	-0.356
630.58	-0.374
630.91	-0.412
631.23	-0.454
631.56	-0.446
631.89	-0.458
632.21	-0.487
632.54	-0.507
632.87	-0.537
633.19	-0.567
633.52	-0.617
633.85	-0.638
634.18	-0.686
634.50	-0.725
634.83	-0.755
635.16	-0.812
635.48	-0.874
635.81	-0.926
636.14	-1.001
636.46	-1.054
636.79	-1.092
637.11	-1.135
637.44	-1.203
637.77	-1.243
638.09	-1.285
638.42	-1.344
638.75	-1.382
639.07	-1.388
639.40	-1.433
639.73	-1.460
640.05	-1.512
640.38	-1.516
640.70	-1.577
641.03	-1.579
641.36	-1.593
641.68	-1.597
642.01	-1.588
642.33	-1.618
642.66	-1.630
642.98	-1.616
643.31	-1.630
643.64	-1.611
643.96	-1.611
644.29	-1.571
644.61	-1.575
644.94	-1.557
645.26	-1.547
645.59	-1.527
645.91	-1.479
646.24	-1.442
646.56	-1.455
646.89	-1.408
647.22	-1.392
647.54	-1.398
647.87	-1.391
648.19	-1.418
648.52	-1.444
648.84	-1.441
649.17	-1.479
649.49	-1.471
649.82	-1.515
650.14	-1.486
650.47	-1.498
650.79	-1.493
651.11	-1.524
651.44	-1.520
651.76	-1.501
652.09	-1.465
652.41	-1.462
652.74	-1.437
653.06	-1.457
653.39	-1.416
653.71	-1.414
654.04	-1.426
654.36	-1.387
654.68	-1.327
655.01	-1.317
655.33	-1.270
655.66	-1.262
655.98	-1.245
656.30	-1.259
656.63	-1.236
656.95	-1.257
657.28	-1.249
657.60	-1.250
657.92	-1.274
658.25	-1.300
658.57	-1.295
658.90	-1.313
659.22	-1.371
659.54	-1.427
659.87	-1.457
660.19	-1.551
660.51	-1.583
660.84	-1.664
661.16	-1.669
661.48	-1.702
661.81	-1.742
662.13	-1.821
662.45	-1.870
662.78	-1.843
663.10	-1.788
663.42	-1.779
663.75	-1.732
664.07	-1.744
664.39	-1.705
664.72	-1.730
665.04	-1.720
665.36	-1.683
665.69	-1.610
666.01	-1.557
666.33	-1.532
666.65	-1.563
666.98	-1.479
667.30	-1.416
667.62	-1.389
667.94	-1.360
668.27	-1.268
668.59	-1.196
668.91	-1.107
669.23	-1.078
669.56	-1.033
669.88	-0.910
670.20	-0.847
670.52	-0.808
670.85	-0.781
671.17	-0.659
671.49	-0.578
671.81	-0.491
672.13	-0.431
672.46	-0.384
672.78	-0.284
673.10	-0.178
673.42	-0.153
673.74	-0.021
674.07	0.054
674.39	0.202
674.71	0.267
675.03	0.391
675.35	0.491
675.67	0.612
676.00	0.683
676.32	0.731
676.64	0.860
676.96	0.974
677.28	1.051
677.60	1.191
677.92	1.257
678.25	1.361
678.57	1.437
678.89	1.479
679.21	1.511
679.53	1.631
679.85	1.723
680.17	1.739
680.49	1.817
680.81	1.917
681.13	1.938
681.46	2.011
681.78	2.091
682.10	2.158
682.42	2.196
682.74	2.332
683.06	2.388
683.38	2.488
683.70	2.567
684.02	2.606
684.34	2.717
684.66	2.863
684.98	2.992
685.30	3.057
685.62	3.116
685.94	3.251
686.26	3.246
686.58	3.277
686.90	3.313
687.22	3.312
687.54	3.348
687.86	3.285
688.18	3.208
688.50	3.161
688.82	3.110
689.14	3.124
689.46	3.120
689.78	3.126
690.10	3.147
690.42	3.156
690.74	3.227
691.06	3.263
691.38	3.321
691.70	3.399
692.02	3.465
692.34	3.593
692.66	3.702
692.98	3.786
693.30	3.963
693.62	4.116
693.94	4.272
694.26	4.380
694.57	4.535
694.89	4.738
695.21	4.948
695.53	5.104
695.85	5.257
696.17	5.423
696.49	5.634
696.81	5.819
697.13	5.972
697.44	6.112
697.76	6.320
698.08	6.510
698.40	6.691
698.72	6.836
699.04	7.050
699.36	7.342
699.67	7.501
699.99	7.669
700.31	7.903
700.63	8.169
700.95	8.576
701.27	8.889
701.58	9.129
701.90	9.343
702.22	9.710
702.54	9.973
702.86	10.221
703.17	10.528
703.49	10.900
703.81	11.206
704.13	11.520
704.45	11.703
704.76	11.975
705.08	12.317
705.40	12.718
705.72	12.985
706.03	13.339
706.35	13.678
706.67	14.014
706.99	14.348
707.30	14.693
707.62	15.085
707.94	15.435
708.26	15.811
708.57	16.172
708.89	16.580
709.21	16.936
709.53	17.341
709.84	17.762
710.16	18.216
710.48	18.613
710.79	19.050
711.11	19.437
711.43	19.810
711.74	20.250
712.06	20.708
712.38	21.077
712.69	21.472
713.01	21.851
713.33	22.285
713.64	22.790
713.96	23.213
714.28	23.597
714.59	24.067
714.91	24.672
715.23	25.135
715.54	25.575
715.86	26.071
716.17	26.631
716.49	27.175
716.81	27.611
717.12	27.928
717.44	28.415
717.76	28.967
718.07	29.382
718.39	29.731
718.70	30.044
719.02	30.393
719.33	30.833
719.65	31.285
719.97	31.654
720.28	32.123
720.60	32.713
720.91	33.216
721.23	33.587
721.54	33.998
721.86	34.507
722.17	35.154
722.49	35.710
722.81	35.991
723.12	36.331
723.44	36.836
723.75	37.287
724.07	37.757
724.38	38.168
724.70	38.580
725.01	39.024
725.33	39.381
725.64	39.644
725.96	40.012
726.27	40.397
726.59	40.823
726.90	41.117
727.22	41.245
727.53	41.484
727.84	41.744
728.16	41.990
728.47	42.284
728.79	42.581
729.10	42.893
729.42	43.170
729.73	43.464
730.05	43.657
730.36	43.984
730.67	44.476
730.99	44.774
731.30	45.032
731.62	45.366
731.93	45.601
732.24	45.907
732.56	46.226
732.87	46.569
733.19	46.934
733.50	47.323
733.81	47.570
734.13	47.755
734.44	47.990
734.76	48.229
735.07	48.423
735.38	48.612
735.70	48.876
736.01	49.039
736.32	49.253
736.64	49.556
736.95	49.681
737.26	49.740
737.58	50.063
737.89	50.295
738.20	50.488
738.52	50.755
738.83	51.087
739.14	51.102
739.45	51.374
739.77	51.463
740.08	51.504
740.39	51.768
740.71	52.204
741.02	52.086
741.33	52.178
741.64	52.258
741.96	52.509
742.27	52.581
742.58	52.928
742.90	53.077
743.21	53.267
743.52	53.559
743.83	53.581
744.14	53.498
744.46	53.879
744.77	54.165
745.08	54.327
745.39	54.378
745.71	54.505
746.02	54.529
746.33	54.545
746.64	54.675
746.95	54.556
747.27	54.849
747.58	55.020
747.89	54.742
748.20	54.741
748.51	54.968
748.82	54.988
749.14	54.963
749.45	54.784
749.76	54.927
750.07	55.002
750.38	55.034
750.69	55.091
751.01	55.334
751.32	55.742
751.63	55.869
751.94	55.722
752.25	55.858
752.56	56.028
752.87	56.406
753.18	56.329
753.49	56.278
753.81	56.558
754.12	56.486
754.43	56.352
754.74	56.336
755.05	56.190
755.36	56.463
755.67	56.454
755.98	56.547
756.29	56.667
756.60	56.806
756.91	56.984
757.22	57.066
757.53	57.392
757.84	57.577
758.15	57.789
758.46	58.060
758.77	58.086
759.09	58.125
759.40	58.134
759.71	58.056
760.02	58.143
760.33	57.997
760.64	57.826
760.95	57.685
761.26	57.575
761.57	57.403
761.88	57.289
762.18	57.244
762.49	57.219
762.80	57.159
763.11	57.195
763.42	57.124
763.73	57.212
764.04	57.137
764.35	57.081
764.66	57.076
764.97	56.887
765.28	56.885
765.59	56.802
765.90	56.595
766.21	56.501
766.52	56.264
766.83	56.122
767.14	55.979
767.44	55.927
767.75	55.680
768.06	55.513
768.37	55.452
768.68	55.482
768.99	55.513
769.30	55.489
769.61	55.181
769.91	55.210
770.22	54.923
770.53	54.702
770.84	54.578
771.15	54.643
771.46	54.497
771.77	54.876
772.07	54.497
772.38	54.148
772.69	53.963
773.00	54.202
773.31	54.109
773.61	54.167
773.92	54.253
774.23	54.574
774.54	54.505
774.85	54.462
775.15	54.060
775.46	54.018
775.77	54.175
776.08	54.356
776.39	54.131
776.69	54.259
777.00	54.217
777.31	54.421
777.62	54.414
777.92	54.177
778.23	54.159
778.54	54.243
778.85	54.233
779.15	54.220
779.46	54.093
779.77	54.077
780.07	54.185
780.38	54.269
780.69	53.811
781.00	53.566
781.30	53.826
781.61	53.923
781.92	54.056
782.22	54.452
782.53	53.917
782.84	54.149
783.14	54.284
783.45	54.038
783.76	54.310
784.06	54.883
784.37	55.109
784.68	55.105
784.98	55.220
785.29	55.015
785.60	54.764
785.90	55.257
786.21	55.369
786.51	55.651
786.82	55.825
787.13	55.544
787.43	55.677
787.74	55.619
788.04	55.537
788.35	55.531
788.66	55.726
788.96	56.124
789.27	56.124
789.57	55.941
789.88	55.777
790.19	55.378
790.49	55.558
790.80	55.113
791.10	55.099
791.41	55.248
791.71	55.100
792.02	55.044
792.32	54.538
792.63	54.482
792.93	54.474
793.24	54.409
793.54	54.324
793.85	54.364
794.15	54.297
794.46	54.331
794.76	54.185
795.07	54.348
795.37	54.369
795.68	54.635
795.98	54.921
796.29	55.424
796.59	55.634
796.90	56.375
797.20	56.406
797.51	56.479
797.81	56.475
798.12	56.864
798.42	56.691
798.72	56.865
799.03	56.554
799.33	56.545
799.64	56.379
799.94	56.514
800.25	56.273
800.55	56.253
800.85	56.850
801.16	57.225
801.46	56.636
801.77	57.098
802.07	57.536
802.37	57.715
802.68	57.447
802.98	57.319
803.28	56.987
803.59	56.872
803.89	57.167
804.20	56.646
804.50	55.898
804.80	56.182
805.11	56.236
805.41	55.752
805.71	55.794
806.02	56.017
806.32	56.067
806.62	56.455
806.93	56.409
807.23	56.185
807.53	56.004
807.83	56.428
808.14	56.990
808.44	56.586
808.74	56.537
809.05	56.283
809.35	55.853
809.65	56.136
809.95	56.013
810.26	56.124
810.56	56.311
810.86	56.828
811.16	56.965
811.47	57.029
811.77	57.850
812.07	57.666
812.37	58.194
812.68	58.869
812.98	58.304
813.28	58.363
813.58	58.611
813.88	58.371
814.19	58.753
814.49	59.113
814.79	58.785
815.09	58.336
815.39	58.479
815.70	58.527
816.00	58.305
816.30	58.572
816.60	58.526
816.90	58.125
817.20	58.529
817.50	58.265
817.81	58.066
818.11	58.268
818.41	58.438
818.71	58.640
819.01	59.016
819.31	59.333
819.61	59.606
819.92	59.822
820.22	60.182
820.52	60.356
820.82	60.682
821.12	61.144
821.42	61.404
821.72	61.647
822.02	62.031
822.32	62.331
822.62	62.636
822.92	62.889
823.22	63.225
823.52	63.510
823.83	63.689
824.13	63.660
824.43	63.400
824.73	63.493
825.03	63.425
825.33	63.334
825.63	63.133
825.93	62.946
826.23	62.795
826.53	62.644
826.83	62.320
827.13	62.403
827.43	62.579
827.73	62.973
828.03	63.112
828.33	63.554
828.63	63.406
828.93	63.366
829.23	63.252
829.53	62.941
829.83	62.394
830.13	62.266
830.42	61.847
830.72	61.562
831.02	61.371
831.32	60.880
831.62	60.523
831.92	60.642
832.22	60.526
832.52	60.441
832.82	60.590
833.12	60.678
833.42	60.761
833.72	60.909
834.01	61.228
834.31	61.123
834.61	61.497
834.91	62.053
835.21	62.272
835.51	62.452
835.81	62.431
836.11	62.528
836.40	62.545
836.70	62.470
837.00	62.611
837.30	61.671
837.60	61.507
837.90	61.403
838.19	60.421
838.49	59.808
838.79	59.870
839.09	60.251
839.39	60.149
839.68	60.819
839.98	60.495
840.28	59.410
840.58	60.683
840.88	61.164
841.17	60.286
841.47	61.223
841.77	61.589
842.07	61.254
842.36	61.469
842.66	61.037
842.96	60.186
843.26	60.198
843.55	62.118
843.85	61.671
844.15	61.058
844.45	62.071
844.74	61.571
845.04	60.780
845.34	60.510
845.63	60.495
845.93	61.816
846.23	62.602
846.53	62.799
846.82	61.360
847.12	60.609
847.42	60.530
847.71	59.617
848.01	58.064
848.31	59.354
848.60	58.577
848.90	57.237
849.19	55.894
849.49	55.237
849.79	55.007
850.08	54.057
850.38	52.593
850.68	53.647
850.97	54.891
851.27	54.914
851.56	54.529
851.86	55.903
852.16	56.294
852.45	56.194
852.75	56.246
853.04	58.460
853.34	59.377
853.64	60.152
853.93	58.179
854.23	57.804
854.52	58.102
854.82	58.767
855.11	58.700
855.41	60.809
855.70	62.181
856.00	62.132
856.30	60.122
856.59	60.783
856.89	62.590
857.18	64.613
857.48	63.915
857.77	62.337
858.07	61.356
858.36	61.577
858.66	60.512
858.95	59.961
859.25	59.331
859.54	59.646
859.84	59.657
860.13	59.126
860.42	59.007
860.72	57.854
861.01	59.469
861.31	61.098
861.60	61.271
861.90	60.309
862.19	61.535
862.49	62.628
862.78	62.320
863.07	62.293
863.37	63.615
863.66	62.723
863.96	65.532
864.25	67.351
864.54	66.778
864.84	65.059
865.13	64.909
865.43	65.229
865.72	80.844
866.01	69.188
866.31	48.201
866.60	53.398
866.89	73.066
>>>>>End Spectral Data<<<<<
