OOIBase32 Version 2.0.0.6 Data File
++++++++++++++++++++++++++++++++++++
Date: 01-23-2012, 23:14:32
User: Valued Ocean Optics Customer
Spectrometer Serial Number: USB2E2917
Spectrometer Channel: Master
Integration Time (msec): 5
Spectra Averaged: 10
Boxcar Smoothing: 5
Correct for Electrical Dark: Enabled
Time Normalized: Disabled
Dual-beam Reference: Disabled
Reference Channel: Master
Temperature: Not acquired
Spectrometer Type: S2000
ADC Type: USB2000
Number of Pixels in File: 2048
Graph Title: 
>>>>>Begin Spectral Data<<<<<
180.30	0.000
180.67	0.000
181.03	2.199
181.40	214.251
181.77	-14874.771
182.14	46.857
182.51	-744.925
182.88	96.961
183.25	-89.031
183.62	-13.517
183.99	160.072
184.36	44.770
184.73	534.418
185.10	71.881
185.46	-955.416
185.83	178.093
186.20	760.203
186.57	83.979
186.94	91.811
187.31	67.006
187.68	19.425
188.05	18.045
188.42	48.008
188.78	100.691
189.15	512.437
189.52	-68.910
189.89	-2.371
190.26	-0.813
190.63	19.196
191.00	16.808
191.37	21.599
191.73	31.324
192.10	29.227
192.47	36.529
192.84	33.177
193.21	48.095
193.58	45.009
193.94	51.137
194.31	48.181
194.68	48.085
195.05	43.250
195.42	39.397
195.79	28.559
196.15	30.174
196.52	13.749
196.89	36.311
197.26	23.284
197.63	38.026
198.00	28.710
198.36	16.305
198.73	-5.932
199.10	-7.753
199.47	-6.460
199.84	-8.343
200.20	-0.319
200.57	8.388
200.94	4.896
201.31	7.567
201.68	-16.530
202.04	-16.897
202.41	-8.072
202.78	-17.069
203.15	-22.802
203.51	-15.073
203.88	-23.346
204.25	-28.537
204.62	-47.657
204.98	-54.208
205.35	-73.324
205.72	-75.722
206.09	-83.956
206.46	-164.350
206.82	-123.043
207.19	-104.494
207.56	-177.666
207.92	-123.792
208.29	-140.644
208.66	-80.323
209.03	-73.121
209.39	-19.149
209.76	0.614
210.13	-10.558
210.50	0.669
210.86	20.530
211.23	13.280
211.60	26.153
211.96	15.794
212.33	22.295
212.70	12.137
213.07	5.723
213.43	-54.971
213.80	-74.869
214.17	-37.941
214.53	-30.907
214.90	-28.608
215.27	-17.701
215.63	-17.909
216.00	-13.192
216.37	-8.237
216.74	-14.481
217.10	-8.155
217.47	0.214
217.84	5.561
218.20	4.963
218.57	5.653
218.94	-3.799
219.30	-9.005
219.67	-13.339
220.04	-10.090
220.40	-18.521
220.77	-20.946
221.13	-16.652
221.50	-12.875
221.87	-13.891
222.23	-15.558
222.60	-17.284
222.97	-8.889
223.33	-4.417
223.70	-4.629
224.07	-6.537
224.43	-6.028
224.80	-4.684
225.16	-6.484
225.53	-6.901
225.90	-9.390
226.26	-7.301
226.63	-5.157
226.99	-3.780
227.36	-3.143
227.73	-1.805
228.09	-1.511
228.46	0.993
228.82	2.448
229.19	1.821
229.56	0.977
229.92	4.785
230.29	4.421
230.65	4.668
231.02	2.283
231.38	-1.129
231.75	-2.987
232.12	-4.512
232.48	-7.894
232.85	-9.021
233.21	-9.106
233.58	-8.309
233.94	-9.454
234.31	-8.862
234.68	-8.414
235.04	-8.476
235.41	-6.967
235.77	-5.097
236.14	-4.062
236.50	-2.138
236.87	-2.168
237.23	-1.380
237.60	-2.571
237.96	-1.875
238.33	-2.723
238.69	-3.982
239.06	-3.233
239.42	-2.948
239.79	-3.712
240.15	-3.718
240.52	-3.510
240.88	-3.010
241.25	-3.020
241.61	-1.917
241.98	-2.288
242.34	-1.963
242.71	-0.743
243.07	-0.550
243.44	-0.369
243.80	0.120
244.17	0.381
244.53	0.124
244.90	0.058
245.26	0.098
245.63	0.054
245.99	-0.138
246.36	-0.207
246.72	-0.314
247.09	-0.650
247.45	-0.379
247.81	-0.503
248.18	-0.882
248.54	-0.571
248.91	-0.532
249.27	-0.339
249.64	-0.154
250.00	0.120
250.36	0.186
250.73	-0.189
251.09	0.241
251.46	-0.363
251.82	-0.429
252.19	-0.755
252.55	-1.389
252.91	-1.797
253.28	-2.113
253.64	-2.878
254.01	-2.951
254.37	-2.633
254.73	-2.103
255.10	-1.712
255.46	-1.114
255.83	-0.815
256.19	-0.381
256.55	-0.314
256.92	-0.123
257.28	-0.063
257.65	0.104
258.01	0.195
258.37	0.125
258.74	-0.043
259.10	-0.265
259.46	-0.471
259.83	-0.601
260.19	-0.690
260.55	-0.486
260.92	-0.646
261.28	-0.641
261.64	-0.638
262.01	-0.577
262.37	-0.601
262.73	-0.546
263.10	-0.263
263.46	-0.187
263.82	-0.345
264.19	-0.120
264.55	-0.853
264.91	-0.948
265.28	-1.286
265.64	-1.250
266.00	-1.311
266.37	-1.032
266.73	-1.140
267.09	-0.890
267.46	-0.832
267.82	-0.853
268.18	-0.899
268.54	-0.304
268.91	-0.245
269.27	-0.106
269.63	-0.004
270.00	0.136
270.36	-0.027
270.72	0.145
271.08	-0.153
271.45	-0.156
271.81	-0.038
272.17	-0.110
272.53	-0.155
272.90	0.134
273.26	0.377
273.62	0.236
273.98	0.058
274.35	0.119
274.71	0.123
275.07	0.173
275.43	0.112
275.80	0.070
276.16	-0.082
276.52	-0.251
276.88	-0.682
277.25	-1.227
277.61	-1.487
277.97	-1.724
278.33	-1.781
278.69	-1.920
279.06	-2.026
279.42	-1.875
279.78	-1.844
280.14	-1.510
280.50	-1.274
280.87	-1.081
281.23	-0.773
281.59	-0.575
281.95	-0.546
282.31	-0.515
282.68	-0.626
283.04	-0.658
283.40	-0.675
283.76	-0.546
284.12	-0.453
284.48	-0.394
284.85	-0.283
285.21	-0.145
285.57	-0.225
285.93	-0.021
286.29	-0.136
286.65	0.029
287.02	0.500
287.38	0.563
287.74	0.408
288.10	0.186
288.46	0.006
288.82	-0.067
289.18	-0.253
289.54	-0.086
289.91	-0.122
290.27	0.004
290.63	0.053
290.99	-0.137
291.35	-0.155
291.71	0.146
292.07	0.063
292.43	0.023
292.79	-0.039
293.16	-0.005
293.52	0.143
293.88	0.295
294.24	0.402
294.60	0.326
294.96	0.143
295.32	0.235
295.68	0.115
296.04	0.200
296.40	0.309
296.76	0.459
297.12	0.443
297.49	0.263
297.85	0.163
298.21	0.049
298.57	-0.018
298.93	-0.036
299.29	-0.138
299.65	0.020
300.01	0.022
300.37	0.109
300.73	0.175
301.09	0.309
301.45	0.380
301.81	0.508
302.17	0.624
302.53	0.656
302.89	0.739
303.25	0.691
303.61	0.522
303.97	0.466
304.33	0.312
304.69	0.187
305.05	0.066
305.41	-0.101
305.77	-0.231
306.13	-0.314
306.49	-0.347
306.85	-0.244
307.21	-0.181
307.57	0.003
307.93	0.117
308.29	0.277
308.65	0.224
309.01	0.318
309.37	0.366
309.73	0.373
310.09	0.514
310.45	0.644
310.81	0.520
311.17	0.438
311.53	0.239
311.89	0.242
312.25	0.089
312.61	0.027
312.96	-0.015
313.32	0.148
313.68	0.068
314.04	-0.062
314.40	-0.074
314.76	0.009
315.12	-0.009
315.48	0.087
315.84	-0.028
316.20	0.087
316.56	0.210
316.92	0.074
317.27	-0.098
317.63	-0.023
317.99	-0.072
318.35	-0.016
318.71	-0.052
319.07	0.022
319.43	0.023
319.79	0.156
320.15	0.022
320.50	0.075
320.86	0.165
321.22	0.162
321.58	0.144
321.94	0.169
322.30	-0.002
322.66	-0.053
323.01	-0.107
323.37	-0.183
323.73	-0.197
324.09	-0.186
324.45	-0.232
324.81	-0.284
325.17	-0.245
325.52	-0.320
325.88	-0.398
326.24	-0.400
326.60	-0.389
326.96	-0.376
327.31	-0.403
327.67	-0.485
328.03	-0.473
328.39	-0.554
328.75	-0.495
329.11	-0.478
329.46	-0.337
329.82	-0.209
330.18	-0.196
330.54	-0.207
330.90	-0.267
331.25	-0.199
331.61	-0.089
331.97	-0.018
332.33	0.074
332.68	0.137
333.04	0.180
333.40	0.017
333.76	-0.099
334.11	-0.094
334.47	-0.035
334.83	0.035
335.19	-0.025
335.54	-0.162
335.90	-0.211
336.26	-0.221
336.62	-0.325
336.97	-0.460
337.33	-0.428
337.69	-0.391
338.05	-0.406
338.40	-0.437
338.76	-0.392
339.12	-0.234
339.48	-0.262
339.83	-0.269
340.19	-0.278
340.55	-0.174
340.90	-0.124
341.26	-0.053
341.62	-0.076
341.97	-0.105
342.33	-0.087
342.69	-0.100
343.04	-0.138
343.40	-0.171
343.76	-0.264
344.12	-0.252
344.47	-0.277
344.83	-0.250
345.19	-0.232
345.54	-0.146
345.90	-0.044
346.26	-0.006
346.61	-0.009
346.97	-0.060
347.32	0.014
347.68	0.070
348.04	0.033
348.39	-0.047
348.75	-0.020
349.11	-0.002
349.46	-0.027
349.82	-0.065
350.18	-0.178
350.53	-0.189
350.89	-0.267
351.24	-0.299
351.60	-0.282
351.96	-0.177
352.31	-0.143
352.67	-0.132
353.02	-0.199
353.38	-0.211
353.74	-0.188
354.09	-0.126
354.45	-0.097
354.80	-0.028
355.16	0.038
355.52	0.069
355.87	-0.064
356.23	-0.005
356.58	-0.044
356.94	0.038
357.29	0.098
357.65	0.087
358.00	0.147
358.36	0.150
358.72	0.179
359.07	0.189
359.43	0.151
359.78	0.203
360.14	0.156
360.49	0.188
360.85	0.164
361.20	0.126
361.56	0.110
361.91	0.111
362.27	0.119
362.62	0.126
362.98	0.149
363.33	0.168
363.69	0.194
364.04	0.283
364.40	0.286
364.75	0.262
365.11	0.236
365.46	0.255
365.82	0.270
366.17	0.248
366.53	0.243
366.88	0.222
367.24	0.234
367.59	0.202
367.95	0.172
368.30	0.149
368.66	0.184
369.01	0.232
369.37	0.272
369.72	0.307
370.08	0.344
370.43	0.378
370.78	0.395
371.14	0.395
371.49	0.440
371.85	0.396
372.20	0.419
372.56	0.411
372.91	0.428
373.26	0.433
373.62	0.343
373.97	0.358
374.33	0.311
374.68	0.318
375.03	0.371
375.39	0.343
375.74	0.368
376.10	0.397
376.45	0.453
376.80	0.471
377.16	0.420
377.51	0.475
377.87	0.462
378.22	0.450
378.57	0.405
378.93	0.402
379.28	0.448
379.63	0.438
379.99	0.416
380.34	0.396
380.70	0.349
381.05	0.420
381.40	0.409
381.76	0.419
382.11	0.435
382.46	0.508
382.82	0.506
383.17	0.465
383.52	0.483
383.88	0.500
384.23	0.469
384.58	0.474
384.94	0.449
385.29	0.450
385.64	0.452
385.99	0.481
386.35	0.474
386.70	0.463
387.05	0.449
387.41	0.458
387.76	0.411
388.11	0.372
388.47	0.346
388.82	0.343
389.17	0.335
389.52	0.344
389.88	0.338
390.23	0.327
390.58	0.341
390.93	0.385
391.29	0.394
391.64	0.453
391.99	0.512
392.34	0.565
392.70	0.578
393.05	0.556
393.40	0.545
393.75	0.540
394.11	0.528
394.46	0.506
394.81	0.496
395.16	0.463
395.52	0.434
395.87	0.427
396.22	0.438
396.57	0.390
396.92	0.375
397.28	0.340
397.63	0.318
397.98	0.306
398.33	0.294
398.68	0.271
399.04	0.260
399.39	0.246
399.74	0.208
400.09	0.173
400.44	0.179
400.80	0.197
401.15	0.201
401.50	0.221
401.85	0.254
402.20	0.238
402.55	0.279
402.90	0.267
403.26	0.273
403.61	0.277
403.96	0.260
404.31	0.261
404.66	0.267
405.01	0.244
405.36	0.227
405.72	0.206
406.07	0.214
406.42	0.162
406.77	0.174
407.12	0.186
407.47	0.197
407.82	0.223
408.17	0.208
408.53	0.197
408.88	0.171
409.23	0.145
409.58	0.105
409.93	0.125
410.28	0.140
410.63	0.122
410.98	0.098
411.33	0.113
411.68	0.095
412.03	0.145
412.38	0.131
412.73	0.178
413.09	0.209
413.44	0.251
413.79	0.253
414.14	0.267
414.49	0.311
414.84	0.333
415.19	0.343
415.54	0.379
415.89	0.388
416.24	0.437
416.59	0.468
416.94	0.497
417.29	0.525
417.64	0.539
417.99	0.548
418.34	0.565
418.69	0.585
419.04	0.583
419.39	0.582
419.74	0.588
420.09	0.582
420.44	0.582
420.79	0.574
421.14	0.562
421.49	0.573
421.84	0.570
422.19	0.569
422.54	0.546
422.89	0.549
423.24	0.549
423.59	0.525
423.94	0.516
424.29	0.508
424.64	0.505
424.99	0.490
425.34	0.454
425.68	0.436
426.03	0.398
426.38	0.403
426.73	0.384
427.08	0.366
427.43	0.396
427.78	0.399
428.13	0.392
428.48	0.386
428.83	0.388
429.18	0.406
429.53	0.411
429.87	0.412
430.22	0.412
430.57	0.424
430.92	0.412
431.27	0.403
431.62	0.404
431.97	0.408
432.32	0.403
432.67	0.404
433.01	0.380
433.36	0.366
433.71	0.356
434.06	0.349
434.41	0.347
434.76	0.369
435.11	0.366
435.45	0.360
435.80	0.352
436.15	0.361
436.50	0.373
436.85	0.400
437.20	0.413
437.54	0.431
437.89	0.451
438.24	0.455
438.59	0.449
438.94	0.437
439.29	0.415
439.63	0.426
439.98	0.413
440.33	0.399
440.68	0.390
441.03	0.393
441.37	0.397
441.72	0.388
442.07	0.380
442.42	0.379
442.76	0.409
443.11	0.429
443.46	0.432
443.81	0.447
444.16	0.458
444.50	0.459
444.85	0.460
445.20	0.447
445.55	0.454
445.89	0.455
446.24	0.449
446.59	0.419
446.94	0.404
447.28	0.382
447.63	0.375
447.98	0.357
448.32	0.339
448.67	0.323
449.02	0.313
449.37	0.257
449.71	0.250
450.06	0.248
450.41	0.251
450.75	0.253
451.10	0.263
451.45	0.235
451.79	0.222
452.14	0.218
452.49	0.219
452.84	0.218
453.18	0.234
453.53	0.211
453.88	0.194
454.22	0.195
454.57	0.212
454.92	0.218
455.26	0.237
455.61	0.273
455.95	0.307
456.30	0.314
456.65	0.340
456.99	0.366
457.34	0.397
457.69	0.420
458.03	0.424
458.38	0.431
458.73	0.432
459.07	0.423
459.42	0.400
459.76	0.361
460.11	0.346
460.46	0.314
460.80	0.278
461.15	0.248
461.49	0.217
461.84	0.188
462.19	0.158
462.53	0.144
462.88	0.144
463.22	0.129
463.57	0.145
463.91	0.134
464.26	0.153
464.61	0.155
464.95	0.133
465.30	0.134
465.64	0.145
465.99	0.149
466.33	0.146
466.68	0.145
467.02	0.147
467.37	0.125
467.71	0.122
468.06	0.112
468.41	0.109
468.75	0.115
469.10	0.111
469.44	0.103
469.79	0.082
470.13	0.042
470.48	0.009
470.82	0.000
471.17	0.013
471.51	-0.009
471.86	-0.040
472.20	-0.054
472.55	-0.058
472.89	-0.071
473.23	-0.082
473.58	-0.079
473.92	-0.068
474.27	-0.066
474.61	-0.083
474.96	-0.088
475.30	-0.073
475.65	-0.076
475.99	-0.071
476.34	-0.069
476.68	-0.072
477.02	-0.069
477.37	-0.078
477.71	-0.055
478.06	-0.012
478.40	0.072
478.75	0.148
479.09	0.227
479.43	0.315
479.78	0.384
480.12	0.453
480.47	0.525
480.81	0.577
481.15	0.635
481.50	0.687
481.84	0.733
482.19	0.762
482.53	0.787
482.87	0.809
483.22	0.813
483.56	0.804
483.90	0.780
484.25	0.747
484.59	0.725
484.94	0.699
485.28	0.666
485.62	0.629
485.97	0.591
486.31	0.558
486.65	0.527
487.00	0.498
487.34	0.488
487.68	0.476
488.03	0.469
488.37	0.454
488.71	0.440
489.06	0.427
489.40	0.428
489.74	0.415
490.09	0.402
490.43	0.380
490.77	0.362
491.11	0.326
491.46	0.297
491.80	0.272
492.14	0.236
492.49	0.212
492.83	0.175
493.17	0.124
493.51	0.087
493.86	0.049
494.20	0.022
494.54	0.007
494.88	0.011
495.23	0.022
495.57	0.030
495.91	0.052
496.25	0.055
496.60	0.077
496.94	0.076
497.28	0.088
497.62	0.091
497.97	0.087
498.31	0.086
498.65	0.085
498.99	0.072
499.33	0.081
499.68	0.087
500.02	0.093
500.36	0.079
500.70	0.102
501.04	0.104
501.39	0.118
501.73	0.145
502.07	0.176
502.41	0.196
502.75	0.247
503.09	0.265
503.44	0.295
503.78	0.323
504.12	0.360
504.46	0.407
504.80	0.456
505.14	0.494
505.49	0.551
505.83	0.587
506.17	0.646
506.51	0.675
506.85	0.724
507.19	0.772
507.53	0.814
507.87	0.870
508.22	0.893
508.56	0.925
508.90	0.963
509.24	0.995
509.58	1.035
509.92	1.077
510.26	1.119
510.60	1.156
510.94	1.179
511.28	1.220
511.63	1.264
511.97	1.312
512.31	1.376
512.65	1.431
512.99	1.503
513.33	1.600
513.67	1.700
514.01	1.825
514.35	1.946
514.69	2.073
515.03	2.188
515.37	2.304
515.71	2.421
516.05	2.517
516.39	2.616
516.73	2.707
517.07	2.774
517.41	2.830
517.75	2.873
518.09	2.915
518.43	2.965
518.77	3.010
519.11	3.051
519.45	3.100
519.79	3.181
520.13	3.249
520.47	3.333
520.81	3.430
521.15	3.540
521.49	3.654
521.83	3.785
522.17	3.902
522.51	4.047
522.85	4.205
523.19	4.382
523.53	4.564
523.87	4.772
524.21	4.949
524.55	5.117
524.89	5.265
525.23	5.405
525.57	5.530
525.91	5.657
526.25	5.759
526.58	5.860
526.92	5.939
527.26	5.994
527.60	6.034
527.94	6.079
528.28	6.110
528.62	6.141
528.96	6.169
529.30	6.190
529.64	6.203
529.97	6.220
530.31	6.223
530.65	6.243
530.99	6.282
531.33	6.319
531.67	6.341
532.01	6.377
532.35	6.402
532.68	6.429
533.02	6.445
533.36	6.458
533.70	6.470
534.04	6.492
534.38	6.494
534.71	6.488
535.05	6.475
535.39	6.491
535.73	6.496
536.07	6.510
536.41	6.542
536.74	6.574
537.08	6.623
537.42	6.695
537.76	6.755
538.10	6.812
538.43	6.871
538.77	6.948
539.11	6.993
539.45	7.039
539.79	7.086
540.12	7.109
540.46	7.130
540.80	7.128
541.14	7.113
541.47	7.086
541.81	7.076
542.15	7.055
542.49	7.015
542.82	6.978
543.16	6.943
543.50	6.900
543.84	6.860
544.17	6.828
544.51	6.826
544.85	6.803
545.18	6.804
545.52	6.781
545.86	6.750
546.20	6.748
546.53	6.742
546.87	6.730
547.21	6.716
547.54	6.699
547.88	6.700
548.22	6.675
548.55	6.656
548.89	6.641
549.23	6.639
549.56	6.656
549.90	6.647
550.24	6.665
550.57	6.678
550.91	6.667
551.25	6.677
551.58	6.659
551.92	6.649
552.26	6.642
552.59	6.628
552.93	6.615
553.27	6.592
553.60	6.564
553.94	6.507
554.27	6.472
554.61	6.445
554.95	6.416
555.28	6.395
555.62	6.349
555.95	6.328
556.29	6.306
556.63	6.262
556.96	6.217
557.30	6.184
557.63	6.166
557.97	6.112
558.31	6.067
558.64	6.013
558.98	5.976
559.31	5.985
559.65	5.965
559.98	5.917
560.32	5.887
560.65	5.847
560.99	5.800
561.33	5.745
561.66	5.722
562.00	5.720
562.33	5.697
562.67	5.665
563.00	5.596
563.34	5.552
563.67	5.503
564.01	5.442
564.34	5.422
564.68	5.371
565.01	5.330
565.35	5.268
565.68	5.195
566.02	5.134
566.35	5.063
566.69	4.993
567.02	4.935
567.36	4.887
567.69	4.860
568.03	4.803
568.36	4.745
568.69	4.687
569.03	4.643
569.36	4.584
569.70	4.542
570.03	4.510
570.37	4.464
570.70	4.408
571.04	4.355
571.37	4.280
571.70	4.214
572.04	4.163
572.37	4.110
572.71	4.048
573.04	4.010
573.37	3.931
573.71	3.865
574.04	3.809
574.38	3.740
574.71	3.684
575.04	3.625
575.38	3.563
575.71	3.495
576.05	3.439
576.38	3.395
576.71	3.311
577.05	3.267
577.38	3.205
577.71	3.138
578.05	3.065
578.38	2.995
578.71	2.947
579.05	2.903
579.38	2.864
579.71	2.819
580.05	2.760
580.38	2.726
580.71	2.675
581.05	2.646
581.38	2.611
581.71	2.592
582.05	2.572
582.38	2.566
582.71	2.532
583.04	2.508
583.38	2.453
583.71	2.421
584.04	2.409
584.38	2.396
584.71	2.371
585.04	2.373
585.37	2.374
585.71	2.358
586.04	2.325
586.37	2.334
586.70	2.347
587.04	2.359
587.37	2.366
587.70	2.356
588.03	2.348
588.37	2.336
588.70	2.316
589.03	2.296
589.36	2.286
589.69	2.280
590.03	2.237
590.36	2.190
590.69	2.153
591.02	2.106
591.35	2.079
591.69	2.059
592.02	2.042
592.35	2.039
592.68	2.054
593.01	2.028
593.35	2.013
593.68	2.010
594.01	2.010
594.34	1.988
594.67	1.990
595.00	1.982
595.34	1.959
595.67	1.923
596.00	1.883
596.33	1.812
596.66	1.773
596.99	1.721
597.32	1.681
597.65	1.637
597.99	1.603
598.32	1.557
598.65	1.485
598.98	1.452
599.31	1.432
599.64	1.439
599.97	1.426
600.30	1.453
600.63	1.485
600.96	1.501
601.30	1.517
601.63	1.539
601.96	1.553
602.29	1.567
602.62	1.552
602.95	1.542
603.28	1.525
603.61	1.499
603.94	1.437
604.27	1.400
604.60	1.338
604.93	1.305
605.26	1.263
605.59	1.225
605.92	1.203
606.25	1.178
606.58	1.161
606.91	1.107
607.24	1.121
607.57	1.117
607.90	1.098
608.23	1.073
608.56	1.017
608.89	0.962
609.22	0.918
609.55	0.848
609.88	0.796
610.21	0.726
610.54	0.669
610.87	0.584
611.20	0.501
611.53	0.426
611.86	0.370
612.19	0.298
612.52	0.269
612.85	0.253
613.18	0.233
613.51	0.174
613.84	0.111
614.17	0.085
614.49	0.071
614.82	0.046
615.15	0.003
615.48	0.008
615.81	-0.005
616.14	-0.007
616.47	-0.032
616.80	-0.059
617.13	-0.060
617.46	-0.058
617.78	-0.091
618.11	-0.135
618.44	-0.146
618.77	-0.193
619.10	-0.230
619.43	-0.232
619.76	-0.294
620.09	-0.311
620.41	-0.325
620.74	-0.317
621.07	-0.299
621.40	-0.283
621.73	-0.267
622.06	-0.241
622.38	-0.200
622.71	-0.187
623.04	-0.161
623.37	-0.106
623.70	-0.109
624.02	-0.067
624.35	-0.025
624.68	-0.015
625.01	0.020
625.34	0.044
625.66	0.042
625.99	0.065
626.32	0.069
626.65	0.072
626.98	0.055
627.30	0.064
627.63	0.044
627.96	-0.025
628.29	-0.054
628.61	-0.108
628.94	-0.153
629.27	-0.186
629.60	-0.265
629.92	-0.293
630.25	-0.347
630.58	-0.406
630.91	-0.438
631.23	-0.496
631.56	-0.494
631.89	-0.539
632.21	-0.549
632.54	-0.589
632.87	-0.641
633.19	-0.652
633.52	-0.698
633.85	-0.727
634.18	-0.761
634.50	-0.830
634.83	-0.854
635.16	-0.941
635.48	-0.999
635.81	-1.054
636.14	-1.112
636.46	-1.145
636.79	-1.196
637.11	-1.241
637.44	-1.313
637.77	-1.335
638.09	-1.388
638.42	-1.456
638.75	-1.473
639.07	-1.475
639.40	-1.520
639.73	-1.521
640.05	-1.546
640.38	-1.547
640.70	-1.615
641.03	-1.626
641.36	-1.671
641.68	-1.674
642.01	-1.676
642.33	-1.688
642.66	-1.711
642.98	-1.709
643.31	-1.727
643.64	-1.735
643.96	-1.747
644.29	-1.696
644.61	-1.686
644.94	-1.628
645.26	-1.595
645.59	-1.547
645.91	-1.514
646.24	-1.469
646.56	-1.465
646.89	-1.440
647.22	-1.444
647.54	-1.448
647.87	-1.428
648.19	-1.422
648.52	-1.438
648.84	-1.450
649.17	-1.499
649.49	-1.507
649.82	-1.530
650.14	-1.512
650.47	-1.544
650.79	-1.524
651.11	-1.513
651.44	-1.503
651.76	-1.503
652.09	-1.468
652.41	-1.432
652.74	-1.408
653.06	-1.412
653.39	-1.383
653.71	-1.365
654.04	-1.329
654.36	-1.283
654.68	-1.239
655.01	-1.203
655.33	-1.122
655.66	-1.104
655.98	-1.092
656.30	-1.088
656.63	-1.059
656.95	-1.038
657.28	-1.001
657.60	-0.978
657.92	-0.995
658.25	-0.995
658.57	-0.988
658.90	-1.021
659.22	-1.062
659.54	-1.083
659.87	-1.078
660.19	-1.097
660.51	-1.135
660.84	-1.204
661.16	-1.224
661.48	-1.225
661.81	-1.249
662.13	-1.297
662.45	-1.289
662.78	-1.274
663.10	-1.230
663.42	-1.145
663.75	-1.082
664.07	-1.041
664.39	-0.992
664.72	-0.975
665.04	-0.882
665.36	-0.791
665.69	-0.734
666.01	-0.631
666.33	-0.557
666.65	-0.514
666.98	-0.469
667.30	-0.382
667.62	-0.280
667.94	-0.160
668.27	-0.038
668.59	0.026
668.91	0.100
669.23	0.234
669.56	0.271
669.88	0.386
670.20	0.490
670.52	0.605
670.85	0.649
671.17	0.767
671.49	0.876
671.81	0.997
672.13	1.121
672.46	1.273
672.78	1.397
673.10	1.533
673.42	1.691
673.74	1.837
674.07	2.001
674.39	2.220
674.71	2.378
675.03	2.573
675.35	2.759
675.67	2.904
676.00	3.047
676.32	3.148
676.64	3.336
676.96	3.464
677.28	3.609
677.60	3.720
677.92	3.817
678.25	3.931
678.57	4.012
678.89	4.079
679.21	4.212
679.53	4.342
679.85	4.501
680.17	4.609
680.49	4.730
680.81	4.876
681.13	4.965
681.46	5.094
681.78	5.230
682.10	5.394
682.42	5.567
682.74	5.714
683.06	5.812
683.38	5.924
683.70	6.052
684.02	6.166
684.34	6.260
684.66	6.385
684.98	6.471
685.30	6.535
685.62	6.530
685.94	6.540
686.26	6.504
686.58	6.525
686.90	6.516
687.22	6.481
687.54	6.454
687.86	6.386
688.18	6.324
688.50	6.287
688.82	6.275
689.14	6.253
689.46	6.258
689.78	6.279
690.10	6.269
690.42	6.283
690.74	6.347
691.06	6.406
691.38	6.498
691.70	6.591
692.02	6.692
692.34	6.766
692.66	6.826
692.98	6.897
693.30	6.993
693.62	7.065
693.94	7.176
694.26	7.192
694.57	7.240
694.89	7.346
695.21	7.491
695.53	7.558
695.85	7.613
696.17	7.727
696.49	7.884
696.81	7.996
697.13	8.190
697.44	8.327
697.76	8.490
698.08	8.749
698.40	8.947
698.72	9.179
699.04	9.414
699.36	9.703
699.67	10.009
699.99	10.254
700.31	10.566
700.63	10.868
700.95	11.257
701.27	11.564
701.58	11.734
701.90	11.986
702.22	12.254
702.54	12.507
702.86	12.772
703.17	13.054
703.49	13.399
703.81	13.699
704.13	13.989
704.45	14.211
704.76	14.520
705.08	14.849
705.40	15.082
705.72	15.320
706.03	15.705
706.35	15.943
706.67	16.268
706.99	16.520
707.30	16.811
707.62	17.092
707.94	17.440
708.26	17.736
708.57	18.101
708.89	18.513
709.21	18.793
709.53	19.102
709.84	19.491
710.16	19.848
710.48	20.229
710.79	20.619
711.11	21.009
711.43	21.291
711.74	21.799
712.06	22.183
712.38	22.559
712.69	23.062
713.01	23.443
713.33	23.925
713.64	24.393
713.96	24.861
714.28	25.357
714.59	25.877
714.91	26.493
715.23	26.985
715.54	27.435
715.86	27.923
716.17	28.428
716.49	28.991
716.81	29.570
717.12	30.016
717.44	30.467
717.76	31.052
718.07	31.431
718.39	31.838
718.70	32.202
719.02	32.607
719.33	33.060
719.65	33.342
719.97	33.747
720.28	34.046
720.60	34.566
720.91	35.068
721.23	35.372
721.54	35.794
721.86	36.246
722.17	36.701
722.49	37.240
722.81	37.640
723.12	38.180
723.44	38.626
723.75	38.945
724.07	39.193
724.38	39.507
724.70	39.879
725.01	40.193
725.33	40.456
725.64	40.707
725.96	40.947
726.27	41.188
726.59	41.507
726.90	41.706
727.22	41.959
727.53	42.245
727.84	42.464
728.16	42.645
728.47	42.894
728.79	43.208
729.10	43.357
729.42	43.521
729.73	43.850
730.05	43.949
730.36	44.195
730.67	44.431
730.99	44.667
731.30	44.839
731.62	45.182
731.93	45.446
732.24	45.574
732.56	45.975
732.87	46.414
733.19	46.662
733.50	46.995
733.81	47.114
734.13	47.436
734.44	47.724
734.76	47.930
735.07	48.122
735.38	48.282
735.70	48.722
736.01	48.808
736.32	48.866
736.64	49.140
736.95	49.250
737.26	49.662
737.58	49.713
737.89	49.714
738.20	50.003
738.52	49.975
738.83	50.306
739.14	50.251
739.45	50.498
739.77	50.875
740.08	50.904
740.39	51.047
740.71	51.242
741.02	51.431
741.33	51.813
741.64	51.976
741.96	52.428
742.27	52.316
742.58	52.503
742.90	52.665
743.21	52.601
743.52	52.696
743.83	52.866
744.14	52.682
744.46	52.905
744.77	52.928
745.08	52.605
745.39	52.280
745.71	52.300
746.02	52.193
746.33	52.096
746.64	52.104
746.95	52.037
747.27	51.987
747.58	52.095
747.89	52.030
748.20	51.885
748.51	52.175
748.82	52.293
749.14	52.380
749.45	52.542
749.76	52.616
750.07	52.630
750.38	52.630
750.69	52.493
751.01	52.364
751.32	52.309
751.63	52.392
751.94	52.345
752.25	52.309
752.56	52.181
752.87	52.043
753.18	51.910
753.49	51.831
753.81	52.022
754.12	52.018
754.43	52.023
754.74	52.076
755.05	52.120
755.36	52.309
755.67	52.441
755.98	52.834
756.29	52.869
756.60	52.938
756.91	52.994
757.22	52.877
757.53	53.299
757.84	53.474
758.15	53.661
758.46	53.753
758.77	53.648
759.09	53.557
759.40	53.301
759.71	53.370
760.02	53.241
760.33	53.079
760.64	53.004
760.95	52.822
761.26	52.671
761.57	52.457
761.88	52.321
762.18	52.189
762.49	52.251
762.80	52.199
763.11	52.098
763.42	52.067
763.73	52.104
764.04	52.063
764.35	52.058
764.66	52.031
764.97	51.937
765.28	51.715
765.59	51.696
765.90	51.357
766.21	51.106
766.52	50.812
766.83	50.630
767.14	50.461
767.44	50.204
767.75	49.855
768.06	49.727
768.37	49.440
768.68	49.524
768.99	49.353
769.30	49.340
769.61	49.237
769.91	49.409
770.22	49.199
770.53	49.056
770.84	49.095
771.15	49.086
771.46	48.870
771.77	49.098
772.07	48.785
772.38	48.672
772.69	48.657
773.00	48.675
773.31	48.506
773.61	48.589
773.92	48.449
774.23	48.405
774.54	48.185
774.85	48.116
775.15	47.812
775.46	47.962
775.77	47.731
776.08	47.721
776.39	47.597
776.69	47.426
777.00	47.710
777.31	47.855
777.62	47.952
777.92	47.799
778.23	47.824
778.54	47.831
778.85	47.992
779.15	48.128
779.46	48.044
779.77	48.182
780.07	48.571
780.38	48.622
780.69	48.472
781.00	48.514
781.30	48.667
781.61	48.636
781.92	48.669
782.22	48.559
782.53	48.756
782.84	48.738
783.14	49.022
783.45	48.844
783.76	48.691
784.06	48.850
784.37	48.528
784.68	48.678
784.98	48.922
785.29	48.872
785.60	48.676
785.90	48.948
786.21	48.837
786.51	48.890
786.82	48.841
787.13	49.141
787.43	49.259
787.74	49.509
788.04	49.722
788.35	49.671
788.66	50.109
788.96	50.308
789.27	50.135
789.57	50.249
789.88	49.997
790.19	49.990
790.49	49.754
790.80	49.586
791.10	49.563
791.41	49.312
791.71	49.214
792.02	48.866
792.32	48.636
792.63	48.639
792.93	48.479
793.24	48.793
793.54	48.802
793.85	48.509
794.15	48.345
794.46	48.473
794.76	48.282
795.07	48.176
795.37	48.172
795.68	48.207
795.98	48.267
796.29	48.619
796.59	47.998
796.90	48.068
797.20	48.167
797.51	48.519
797.81	48.022
798.12	48.510
798.42	48.699
798.72	48.821
799.03	49.259
799.33	49.167
799.64	48.815
799.94	49.324
800.25	49.150
800.55	49.088
800.85	49.176
801.16	49.601
801.46	49.083
801.77	49.305
802.07	49.675
802.37	49.327
802.68	48.943
802.98	49.190
803.28	48.788
803.59	49.283
803.89	49.446
804.20	49.213
804.50	49.197
804.80	49.600
805.11	49.178
805.41	48.507
805.71	48.466
806.02	48.993
806.32	49.181
806.62	49.742
806.93	49.160
807.23	49.411
807.53	49.761
807.83	49.452
808.14	49.337
808.44	49.455
808.74	49.741
809.05	49.518
809.35	49.390
809.65	49.533
809.95	49.035
810.26	48.865
810.56	48.972
810.86	48.960
811.16	49.191
811.47	49.614
811.77	49.995
812.07	50.081
812.37	50.900
812.68	50.741
812.98	50.436
813.28	51.203
813.58	52.059
813.88	51.781
814.19	52.002
814.49	52.302
814.79	51.837
815.09	52.003
815.39	52.159
815.70	52.103
816.00	52.214
816.30	52.112
816.60	51.844
816.90	51.876
817.20	52.278
817.50	51.855
817.81	51.803
818.11	51.763
818.41	51.669
818.71	51.779
819.01	51.784
819.31	52.121
819.61	52.464
819.92	52.708
820.22	52.967
820.52	53.053
820.82	53.310
821.12	53.667
821.42	54.026
821.72	54.304
822.02	54.634
822.32	54.980
822.62	55.168
822.92	55.415
823.22	55.637
823.52	55.824
823.83	56.008
824.13	56.205
824.43	56.049
824.73	56.073
825.03	56.061
825.33	55.971
825.63	55.829
825.93	55.825
826.23	55.539
826.53	55.291
826.83	55.121
827.13	55.284
827.43	55.116
827.73	55.352
828.03	55.377
828.33	55.570
828.63	55.555
828.93	55.663
829.23	55.306
829.53	55.219
829.83	54.924
830.13	54.408
830.42	53.769
830.72	53.782
831.02	53.622
831.32	53.456
831.62	53.360
831.92	53.217
832.22	53.041
832.52	53.080
832.82	53.093
833.12	53.331
833.42	53.553
833.72	53.766
834.01	53.671
834.31	53.624
834.61	53.794
834.91	54.130
835.21	54.298
835.51	54.284
835.81	54.302
836.11	54.470
836.40	54.493
836.70	54.820
837.00	55.084
837.30	55.129
837.60	55.359
837.90	55.385
838.19	54.557
838.49	54.337
838.79	54.684
839.09	54.688
839.39	54.162
839.68	54.338
839.98	53.763
840.28	52.970
840.58	53.054
840.88	53.642
841.17	52.658
841.47	52.498
841.77	52.478
842.07	51.821
842.36	52.130
842.66	52.332
842.96	51.416
843.26	50.776
843.55	50.773
843.85	50.729
844.15	49.458
844.45	49.296
844.74	49.201
845.04	49.236
845.34	50.228
845.63	50.479
845.93	51.490
846.23	52.439
846.53	52.351
846.82	52.697
847.12	51.808
847.42	50.902
847.71	50.371
848.01	50.010
848.31	50.015
848.60	49.839
848.90	48.412
849.19	48.050
849.49	47.051
849.79	48.079
850.08	47.328
850.38	48.012
850.68	47.824
850.97	49.561
851.27	49.192
851.56	49.601
851.86	48.039
852.16	49.136
852.45	46.671
852.75	48.248
853.04	48.161
853.34	48.629
853.64	47.612
853.93	48.553
854.23	47.845
854.52	49.426
854.82	48.760
855.11	48.882
855.41	48.525
855.70	51.875
856.00	50.691
856.30	49.489
856.59	49.533
856.89	51.246
857.18	52.040
857.48	52.081
857.77	50.260
858.07	50.854
858.36	50.338
858.66	50.130
858.95	47.693
859.25	47.625
859.54	46.967
859.84	46.568
860.13	45.267
860.42	44.661
860.72	44.406
861.01	45.805
861.31	45.028
861.60	47.792
861.90	47.997
862.19	50.053
862.49	49.099
862.78	48.073
863.07	48.256
863.37	49.424
863.66	46.546
863.96	48.962
864.25	47.289
864.54	47.007
864.84	45.247
865.13	45.462
865.43	45.292
865.72	38.924
866.01	45.741
866.31	47.794
866.60	50.758
866.89	57.220
>>>>>End Spectral Data<<<<<
