OOIBase32 Version 2.0.0.6 Data File
++++++++++++++++++++++++++++++++++++
Date: 01-23-2012, 23:15:50
User: Valued Ocean Optics Customer
Spectrometer Serial Number: USB2E2917
Spectrometer Channel: Master
Integration Time (msec): 5
Spectra Averaged: 10
Boxcar Smoothing: 5
Correct for Electrical Dark: Enabled
Time Normalized: Disabled
Dual-beam Reference: Disabled
Reference Channel: Master
Temperature: Not acquired
Spectrometer Type: S2000
ADC Type: USB2000
Number of Pixels in File: 2048
Graph Title: 
>>>>>Begin Spectral Data<<<<<
180.30	0.000
180.67	0.000
181.03	-97.845
181.40	472.662
181.77	1055.428
182.14	86.630
182.51	-792.135
182.88	-135.037
183.25	56.268
183.62	13.564
183.99	202.986
184.36	-10.619
184.73	178.109
185.10	-27.318
185.46	-1002.626
185.83	-286.841
186.20	327.322
186.57	-70.066
186.94	22.843
187.31	-12.332
187.68	-71.595
188.05	20.381
188.42	32.369
188.78	-27.465
189.15	-145.560
189.52	45.775
189.89	27.398
190.26	-5.345
190.63	2.939
191.00	11.236
191.37	27.784
191.73	38.233
192.10	31.622
192.47	30.850
192.84	26.636
193.21	23.542
193.58	17.069
193.94	5.038
194.31	19.828
194.68	15.706
195.05	-3.230
195.42	-4.338
195.79	-7.362
196.15	-0.682
196.52	-4.335
196.89	-11.465
197.26	-14.070
197.63	12.514
198.00	29.403
198.36	9.410
198.73	-2.306
199.10	-1.969
199.47	-5.803
199.84	-6.255
200.20	-23.237
200.57	-17.468
200.94	-8.352
201.31	-9.559
201.68	-22.822
202.04	-44.417
202.41	-39.622
202.78	-38.110
203.15	-35.421
203.51	-40.036
203.88	-46.723
204.25	-25.745
204.62	-41.449
204.98	-48.747
205.35	-42.416
205.72	-55.056
206.09	-31.549
206.46	-98.496
206.82	-77.187
207.19	-61.715
207.56	-115.051
207.92	-102.764
208.29	-118.267
208.66	-68.430
209.03	-67.415
209.39	-43.229
209.76	-34.283
210.13	-76.373
210.50	-26.440
210.86	-27.783
211.23	-38.313
211.60	-12.139
211.96	-7.757
212.33	1.830
212.70	-1.391
213.07	2.074
213.43	-28.075
213.80	-32.085
214.17	-6.295
214.53	0.205
214.90	2.455
215.27	5.451
215.63	3.613
216.00	0.187
216.37	-2.692
216.74	-21.622
217.10	-18.988
217.47	-20.653
217.84	-15.656
218.20	-10.697
218.57	-14.750
218.94	-16.164
219.30	-15.200
219.67	-19.725
220.04	-14.825
220.40	-14.450
220.77	-10.666
221.13	-5.361
221.50	1.145
221.87	4.083
222.23	-3.749
222.60	-5.185
222.97	-2.696
223.33	-4.146
223.70	-0.425
224.07	-2.293
224.43	-6.316
224.80	-3.971
225.16	-6.541
225.53	-5.780
225.90	-6.874
226.26	-4.671
226.63	-3.246
226.99	-2.548
227.36	-1.751
227.73	-1.646
228.09	-1.540
228.46	0.665
228.82	1.941
229.19	2.218
229.56	2.872
229.92	3.504
230.29	3.449
230.65	2.344
231.02	0.215
231.38	-3.875
231.75	-5.773
232.12	-7.358
232.48	-9.792
232.85	-11.093
233.21	-11.589
233.58	-14.963
233.94	-14.788
234.31	-15.700
234.68	-14.325
235.04	-12.083
235.41	-8.981
235.77	-6.475
236.14	-4.494
236.50	-2.596
236.87	-2.469
237.23	-1.451
237.60	-0.931
237.96	-1.339
238.33	-2.101
238.69	-2.941
239.06	-2.546
239.42	-2.221
239.79	-2.745
240.15	-2.831
240.52	-2.550
240.88	-1.810
241.25	-2.124
241.61	-1.369
241.98	-1.092
242.34	-0.362
242.71	-0.039
243.07	-0.230
243.44	-0.416
243.80	-0.386
244.17	-0.329
244.53	-0.725
244.90	-1.144
245.26	-1.085
245.63	-1.289
245.99	-1.284
246.36	-1.512
246.72	-1.322
247.09	-1.676
247.45	-1.694
247.81	-1.569
248.18	-1.705
248.54	-1.567
248.91	-1.709
249.27	-1.735
249.64	-1.627
250.00	-2.025
250.36	-2.330
250.73	-3.018
251.09	-2.351
251.46	-2.361
251.82	-2.215
252.19	-1.860
252.55	-1.825
252.91	-1.262
253.28	-0.962
253.64	-1.334
254.01	-0.919
254.37	-0.164
254.73	0.766
255.10	0.807
255.46	1.510
255.83	1.107
256.19	0.750
256.55	0.441
256.92	0.274
257.28	0.204
257.65	0.476
258.01	0.452
258.37	0.296
258.74	-0.046
259.10	-0.256
259.46	-0.770
259.83	-0.623
260.19	-0.585
260.55	-0.601
260.92	-0.819
261.28	-0.991
261.64	-1.138
262.01	-1.118
262.37	-1.035
262.73	-0.785
263.10	-0.688
263.46	-0.512
263.82	-0.867
264.19	-0.966
264.55	-1.157
264.91	-0.919
265.28	-0.839
265.64	-0.912
266.00	-0.968
266.37	-0.977
266.73	-0.962
267.09	-1.030
267.46	-1.122
267.82	-1.230
268.18	-0.969
268.54	-0.499
268.91	-0.364
269.27	-0.356
269.63	-0.202
270.00	-0.199
270.36	-0.196
270.72	-0.205
271.08	-0.146
271.45	-0.123
271.81	-0.042
272.17	-0.215
272.53	-0.287
272.90	-0.301
273.26	-0.151
273.62	-0.470
273.98	-0.666
274.35	-0.941
274.71	-1.040
275.07	-0.882
275.43	-0.758
275.80	-0.759
276.16	-0.771
276.52	-0.907
276.88	-1.198
277.25	-1.571
277.61	-1.667
277.97	-1.614
278.33	-1.310
278.69	-1.416
279.06	-1.498
279.42	-1.528
279.78	-1.246
280.14	-1.125
280.50	-0.955
280.87	-0.706
281.23	-0.533
281.59	-0.242
281.95	-0.121
282.31	0.049
282.68	0.030
283.04	-0.068
283.40	-0.023
283.76	-0.082
284.12	-0.031
284.48	-0.039
284.85	-0.129
285.21	-0.005
285.57	-0.072
285.93	0.028
286.29	-0.155
286.65	0.111
287.02	0.472
287.38	0.460
287.74	0.345
288.10	0.367
288.46	0.291
288.82	0.339
289.18	0.262
289.54	0.347
289.91	0.296
290.27	0.392
290.63	0.443
290.99	0.230
291.35	0.401
291.71	0.713
292.07	0.621
292.43	0.621
292.79	0.610
293.16	0.471
293.52	0.526
293.88	0.561
294.24	0.440
294.60	0.215
294.96	0.171
295.32	0.085
295.68	-0.130
296.04	-0.085
296.40	-0.041
296.76	-0.063
297.12	-0.063
297.49	-0.264
297.85	-0.441
298.21	-0.530
298.57	-0.688
298.93	-0.626
299.29	-0.778
299.65	-0.703
300.01	-0.812
300.37	-0.750
300.73	-0.674
301.09	-0.616
301.45	-0.364
301.81	-0.321
302.17	-0.162
302.53	-0.145
302.89	-0.214
303.25	-0.136
303.61	-0.167
303.97	-0.221
304.33	-0.143
304.69	-0.020
305.05	-0.043
305.41	-0.154
305.77	0.047
306.13	0.075
306.49	0.192
306.85	0.290
307.21	0.341
307.57	0.382
307.93	0.421
308.29	0.361
308.65	0.323
309.01	0.346
309.37	0.295
309.73	0.218
310.09	0.347
310.45	0.371
310.81	0.271
311.17	0.199
311.53	0.125
311.89	0.163
312.25	0.160
312.61	0.064
312.96	0.083
313.32	0.249
313.68	0.168
314.04	-0.024
314.40	-0.024
314.76	-0.076
315.12	-0.037
315.48	0.028
315.84	-0.069
316.20	-0.075
316.56	-0.069
316.92	-0.139
317.27	-0.254
317.63	-0.144
317.99	-0.170
318.35	-0.131
318.71	0.008
319.07	0.158
319.43	0.176
319.79	0.266
320.15	0.190
320.50	0.237
320.86	0.294
321.22	0.302
321.58	0.182
321.94	0.128
322.30	0.036
322.66	-0.121
323.01	-0.330
323.37	-0.359
323.73	-0.318
324.09	-0.348
324.45	-0.341
324.81	-0.359
325.17	-0.353
325.52	-0.289
325.88	-0.326
326.24	-0.295
326.60	-0.306
326.96	-0.217
327.31	-0.325
327.67	-0.437
328.03	-0.373
328.39	-0.453
328.75	-0.373
329.11	-0.297
329.46	-0.216
329.82	-0.014
330.18	0.007
330.54	0.033
330.90	-0.009
331.25	0.146
331.61	0.211
331.97	0.164
332.33	0.208
332.68	0.126
333.04	0.080
333.40	-0.072
333.76	-0.217
334.11	-0.272
334.47	-0.199
334.83	-0.249
335.19	-0.356
335.54	-0.363
335.90	-0.348
336.26	-0.351
336.62	-0.400
336.97	-0.455
337.33	-0.467
337.69	-0.478
338.05	-0.431
338.40	-0.496
338.76	-0.403
339.12	-0.310
339.48	-0.330
339.83	-0.331
340.19	-0.375
340.55	-0.243
340.90	-0.283
341.26	-0.272
341.62	-0.240
341.97	-0.263
342.33	-0.227
342.69	-0.259
343.04	-0.268
343.40	-0.283
343.76	-0.314
344.12	-0.285
344.47	-0.274
344.83	-0.183
345.19	-0.104
345.54	-0.030
345.90	-0.022
346.26	-0.049
346.61	-0.037
346.97	-0.056
347.32	-0.022
347.68	-0.052
348.04	-0.089
348.39	-0.232
348.75	-0.302
349.11	-0.390
349.46	-0.514
349.82	-0.545
350.18	-0.521
350.53	-0.475
350.89	-0.519
351.24	-0.516
351.60	-0.441
351.96	-0.345
352.31	-0.289
352.67	-0.230
353.02	-0.221
353.38	-0.167
353.74	-0.142
354.09	-0.170
354.45	-0.152
354.80	-0.130
355.16	-0.103
355.52	-0.117
355.87	-0.233
356.23	-0.227
356.58	-0.227
356.94	-0.150
357.29	-0.107
357.65	-0.061
358.00	-0.054
358.36	-0.136
358.72	-0.128
359.07	-0.165
359.43	-0.173
359.78	-0.082
360.14	-0.068
360.49	-0.075
360.85	-0.085
361.20	-0.108
361.56	-0.159
361.91	-0.135
362.27	-0.106
362.62	-0.108
362.98	-0.098
363.33	-0.123
363.69	-0.176
364.04	-0.188
364.40	-0.195
364.75	-0.220
365.11	-0.271
365.46	-0.291
365.82	-0.302
366.17	-0.355
366.53	-0.379
366.88	-0.392
367.24	-0.395
367.59	-0.414
367.95	-0.403
368.30	-0.410
368.66	-0.378
369.01	-0.355
369.37	-0.309
369.72	-0.279
370.08	-0.204
370.43	-0.173
370.78	-0.190
371.14	-0.198
371.49	-0.166
371.85	-0.188
372.20	-0.176
372.56	-0.186
372.91	-0.167
373.26	-0.191
373.62	-0.207
373.97	-0.226
374.33	-0.215
374.68	-0.182
375.03	-0.162
375.39	-0.157
375.74	-0.169
376.10	-0.199
376.45	-0.210
376.80	-0.192
377.16	-0.197
377.51	-0.201
377.87	-0.186
378.22	-0.269
378.57	-0.306
378.93	-0.257
379.28	-0.239
379.63	-0.213
379.99	-0.150
380.34	-0.110
380.70	-0.129
381.05	-0.089
381.40	-0.074
381.76	-0.059
382.11	0.038
382.46	0.112
382.82	0.130
383.17	0.111
383.52	0.129
383.88	0.092
384.23	0.064
384.58	0.087
384.94	0.058
385.29	0.070
385.64	0.077
385.99	0.093
386.35	0.056
386.70	0.021
387.05	0.024
387.41	0.015
387.76	0.013
388.11	0.018
388.47	0.018
388.82	0.044
389.17	0.019
389.52	0.007
389.88	0.004
390.23	0.033
390.58	0.071
390.93	0.089
391.29	0.095
391.64	0.127
391.99	0.167
392.34	0.176
392.70	0.180
393.05	0.218
393.40	0.233
393.75	0.190
394.11	0.186
394.46	0.136
394.81	0.130
395.16	0.123
395.52	0.090
395.87	0.059
396.22	0.067
396.57	0.046
396.92	-0.017
397.28	-0.043
397.63	-0.036
397.98	-0.062
398.33	-0.064
398.68	-0.083
399.04	-0.075
399.39	-0.064
399.74	-0.069
400.09	-0.090
400.44	-0.083
400.80	-0.055
401.15	-0.056
401.50	-0.043
401.85	-0.006
402.20	0.010
402.55	0.036
402.90	0.008
403.26	-0.014
403.61	-0.031
403.96	-0.034
404.31	-0.026
404.66	0.006
405.01	-0.003
405.36	-0.006
405.72	-0.033
406.07	-0.035
406.42	-0.059
406.77	-0.048
407.12	-0.036
407.47	-0.034
407.82	-0.049
408.17	-0.074
408.53	-0.114
408.88	-0.145
409.23	-0.156
409.58	-0.173
409.93	-0.183
410.28	-0.136
410.63	-0.138
410.98	-0.128
411.33	-0.110
411.68	-0.072
412.03	-0.046
412.38	-0.058
412.73	-0.004
413.09	0.014
413.44	0.052
413.79	0.072
414.14	0.072
414.49	0.123
414.84	0.148
415.19	0.166
415.54	0.187
415.89	0.215
416.24	0.276
416.59	0.310
416.94	0.327
417.29	0.348
417.64	0.360
417.99	0.377
418.34	0.376
418.69	0.398
419.04	0.404
419.39	0.402
419.74	0.408
420.09	0.413
420.44	0.401
420.79	0.402
421.14	0.392
421.49	0.409
421.84	0.397
422.19	0.411
422.54	0.402
422.89	0.403
423.24	0.400
423.59	0.389
423.94	0.361
424.29	0.364
424.64	0.371
424.99	0.362
425.34	0.331
425.68	0.331
426.03	0.289
426.38	0.267
426.73	0.251
427.08	0.246
427.43	0.257
427.78	0.279
428.13	0.267
428.48	0.256
428.83	0.259
429.18	0.289
429.53	0.275
429.87	0.275
430.22	0.269
430.57	0.281
430.92	0.268
431.27	0.264
431.62	0.246
431.97	0.244
432.32	0.229
432.67	0.223
433.01	0.202
433.36	0.185
433.71	0.184
434.06	0.173
434.41	0.154
434.76	0.175
435.11	0.179
435.45	0.191
435.80	0.203
436.15	0.229
436.50	0.239
436.85	0.251
437.20	0.272
437.54	0.278
437.89	0.296
438.24	0.316
438.59	0.308
438.94	0.299
439.29	0.277
439.63	0.276
439.98	0.255
440.33	0.257
440.68	0.259
441.03	0.261
441.37	0.278
441.72	0.276
442.07	0.267
442.42	0.281
442.76	0.302
443.11	0.318
443.46	0.322
443.81	0.346
444.16	0.358
444.50	0.353
444.85	0.351
445.20	0.338
445.55	0.343
445.89	0.358
446.24	0.337
446.59	0.303
446.94	0.294
447.28	0.267
447.63	0.247
447.98	0.222
448.32	0.204
448.67	0.190
449.02	0.171
449.37	0.147
449.71	0.129
450.06	0.133
450.41	0.142
450.75	0.140
451.10	0.152
451.45	0.122
451.79	0.104
452.14	0.106
452.49	0.105
452.84	0.102
453.18	0.099
453.53	0.070
453.88	0.062
454.22	0.064
454.57	0.064
454.92	0.070
455.26	0.100
455.61	0.144
455.95	0.172
456.30	0.193
456.65	0.226
456.99	0.252
457.34	0.280
457.69	0.305
458.03	0.314
458.38	0.327
458.73	0.325
459.07	0.316
459.42	0.282
459.76	0.241
460.11	0.203
460.46	0.166
460.80	0.133
461.15	0.101
461.49	0.049
461.84	0.038
462.19	0.003
462.53	-0.009
462.88	-0.016
463.22	-0.016
463.57	-0.001
463.91	0.018
464.26	0.041
464.61	0.035
464.95	0.025
465.30	0.043
465.64	0.040
465.99	0.062
466.33	0.066
466.68	0.065
467.02	0.064
467.37	0.054
467.71	0.042
468.06	0.021
468.41	0.009
468.75	0.023
469.10	0.014
469.44	-0.007
469.79	-0.033
470.13	-0.071
470.48	-0.098
470.82	-0.106
471.17	-0.109
471.51	-0.127
471.86	-0.137
472.20	-0.135
472.55	-0.161
472.89	-0.168
473.23	-0.178
473.58	-0.181
473.92	-0.181
474.27	-0.179
474.61	-0.193
474.96	-0.185
475.30	-0.187
475.65	-0.205
475.99	-0.210
476.34	-0.199
476.68	-0.208
477.02	-0.205
477.37	-0.201
477.71	-0.163
478.06	-0.125
478.40	-0.050
478.75	0.010
479.09	0.102
479.43	0.192
479.78	0.267
480.12	0.332
480.47	0.394
480.81	0.454
481.15	0.505
481.50	0.548
481.84	0.592
482.19	0.623
482.53	0.653
482.87	0.670
483.22	0.670
483.56	0.661
483.90	0.642
484.25	0.618
484.59	0.592
484.94	0.562
485.28	0.534
485.62	0.501
485.97	0.461
486.31	0.428
486.65	0.395
487.00	0.378
487.34	0.367
487.68	0.355
488.03	0.345
488.37	0.334
488.71	0.324
489.06	0.309
489.40	0.304
489.74	0.293
490.09	0.285
490.43	0.264
490.77	0.230
491.11	0.188
491.46	0.158
491.80	0.129
492.14	0.089
492.49	0.069
492.83	0.025
493.17	-0.033
493.51	-0.070
493.86	-0.113
494.20	-0.137
494.54	-0.147
494.88	-0.141
495.23	-0.137
495.57	-0.133
495.91	-0.123
496.25	-0.123
496.60	-0.104
496.94	-0.090
497.28	-0.087
497.62	-0.083
497.97	-0.084
498.31	-0.079
498.65	-0.076
498.99	-0.087
499.33	-0.067
499.68	-0.061
500.02	-0.066
500.36	-0.060
500.70	-0.051
501.04	-0.047
501.39	-0.052
501.73	-0.039
502.07	-0.023
502.41	-0.022
502.75	0.019
503.09	0.026
503.44	0.047
503.78	0.074
504.12	0.083
504.46	0.121
504.80	0.170
505.14	0.224
505.49	0.270
505.83	0.297
506.17	0.355
506.51	0.372
506.85	0.401
507.19	0.432
507.53	0.467
507.87	0.521
508.22	0.534
508.56	0.544
508.90	0.570
509.24	0.586
509.58	0.613
509.92	0.643
510.26	0.682
510.60	0.716
510.94	0.754
511.28	0.781
511.63	0.812
511.97	0.862
512.31	0.912
512.65	0.948
512.99	1.008
513.33	1.093
513.67	1.152
514.01	1.248
514.35	1.326
514.69	1.399
515.03	1.492
515.37	1.579
515.71	1.675
516.05	1.748
516.39	1.815
516.73	1.874
517.07	1.920
517.41	1.965
517.75	1.988
518.09	2.027
518.43	2.070
518.77	2.097
519.11	2.131
519.45	2.140
519.79	2.181
520.13	2.228
520.47	2.290
520.81	2.366
521.15	2.463
521.49	2.547
521.83	2.642
522.17	2.723
522.51	2.827
522.85	2.937
523.19	3.076
523.53	3.240
523.87	3.404
524.21	3.543
524.55	3.677
524.89	3.798
525.23	3.922
525.57	4.021
525.91	4.122
526.25	4.209
526.58	4.296
526.92	4.368
527.26	4.412
527.60	4.443
527.94	4.470
528.28	4.482
528.62	4.488
528.96	4.490
529.30	4.505
529.64	4.516
529.97	4.519
530.31	4.505
530.65	4.499
530.99	4.504
531.33	4.526
531.67	4.545
532.01	4.581
532.35	4.596
532.68	4.617
533.02	4.624
533.36	4.626
533.70	4.628
534.04	4.640
534.38	4.652
534.71	4.654
535.05	4.642
535.39	4.654
535.73	4.646
536.07	4.673
536.41	4.697
536.74	4.730
537.08	4.768
537.42	4.829
537.76	4.879
538.10	4.926
538.43	4.987
538.77	5.042
539.11	5.088
539.45	5.124
539.79	5.160
540.12	5.176
540.46	5.186
540.80	5.192
541.14	5.174
541.47	5.152
541.81	5.138
542.15	5.104
542.49	5.080
542.82	5.046
543.16	5.021
543.50	4.994
543.84	4.963
544.17	4.939
544.51	4.926
544.85	4.921
545.18	4.923
545.52	4.920
545.86	4.905
546.20	4.896
546.53	4.879
546.87	4.848
547.21	4.825
547.54	4.817
547.88	4.802
548.22	4.774
548.55	4.751
548.89	4.748
549.23	4.737
549.56	4.741
549.90	4.750
550.24	4.753
550.57	4.773
550.91	4.757
551.25	4.757
551.58	4.746
551.92	4.739
552.26	4.742
552.59	4.720
552.93	4.703
553.27	4.691
553.60	4.664
553.94	4.640
554.27	4.612
554.61	4.607
554.95	4.579
555.28	4.569
555.62	4.541
555.95	4.527
556.29	4.499
556.63	4.468
556.96	4.435
557.30	4.416
557.63	4.399
557.97	4.376
558.31	4.329
558.64	4.294
558.98	4.282
559.31	4.275
559.65	4.224
559.98	4.210
560.32	4.188
560.65	4.147
560.99	4.114
561.33	4.079
561.66	4.059
562.00	4.043
562.33	4.030
562.67	3.997
563.00	3.970
563.34	3.953
563.67	3.917
564.01	3.884
564.34	3.872
564.68	3.840
565.01	3.802
565.35	3.767
565.68	3.735
566.02	3.690
566.35	3.635
566.69	3.571
567.02	3.545
567.36	3.493
567.69	3.461
568.03	3.424
568.36	3.362
568.69	3.318
569.03	3.282
569.36	3.237
569.70	3.211
570.03	3.202
570.37	3.186
570.70	3.148
571.04	3.114
571.37	3.070
571.70	3.014
572.04	2.984
572.37	2.951
572.71	2.902
573.04	2.871
573.37	2.828
573.71	2.773
574.04	2.722
574.38	2.656
574.71	2.619
575.04	2.578
575.38	2.553
575.71	2.508
576.05	2.470
576.38	2.437
576.71	2.381
577.05	2.320
577.38	2.265
577.71	2.218
578.05	2.180
578.38	2.134
578.71	2.076
579.05	2.029
579.38	1.957
579.71	1.904
580.05	1.848
580.38	1.818
580.71	1.771
581.05	1.743
581.38	1.700
581.71	1.682
582.05	1.657
582.38	1.655
582.71	1.617
583.04	1.641
583.38	1.615
583.71	1.612
584.04	1.601
584.38	1.609
584.71	1.596
585.04	1.625
585.37	1.611
585.71	1.606
586.04	1.583
586.37	1.612
586.70	1.583
587.04	1.607
587.37	1.604
587.70	1.584
588.03	1.593
588.37	1.608
588.70	1.597
589.03	1.601
589.36	1.594
589.69	1.577
590.03	1.543
590.36	1.533
590.69	1.499
591.02	1.476
591.35	1.465
591.69	1.423
592.02	1.397
592.35	1.376
592.68	1.364
593.01	1.346
593.35	1.346
593.68	1.348
594.01	1.346
594.34	1.334
594.67	1.317
595.00	1.305
595.34	1.298
595.67	1.265
596.00	1.250
596.33	1.203
596.66	1.177
596.99	1.139
597.32	1.079
597.65	1.044
597.99	1.009
598.32	0.948
598.65	0.887
598.98	0.838
599.31	0.814
599.64	0.795
599.97	0.802
600.30	0.793
600.63	0.797
600.96	0.820
601.30	0.821
601.63	0.851
601.96	0.878
602.29	0.898
602.62	0.916
602.95	0.906
603.28	0.901
603.61	0.879
603.94	0.837
604.27	0.820
604.60	0.780
604.93	0.765
605.26	0.706
605.59	0.683
605.92	0.657
606.25	0.612
606.58	0.590
606.91	0.528
607.24	0.495
607.57	0.499
607.90	0.466
608.23	0.427
608.56	0.383
608.89	0.345
609.22	0.291
609.55	0.247
609.88	0.183
610.21	0.130
610.54	0.101
610.87	0.044
611.20	-0.024
611.53	-0.080
611.86	-0.122
612.19	-0.191
612.52	-0.246
612.85	-0.280
613.18	-0.324
613.51	-0.364
613.84	-0.406
614.17	-0.437
614.49	-0.427
614.82	-0.460
615.15	-0.511
615.48	-0.519
615.81	-0.528
616.14	-0.513
616.47	-0.551
616.80	-0.579
617.13	-0.557
617.46	-0.570
617.78	-0.606
618.11	-0.656
618.44	-0.674
618.77	-0.683
619.10	-0.709
619.43	-0.721
619.76	-0.770
620.09	-0.751
620.41	-0.787
620.74	-0.781
621.07	-0.750
621.40	-0.735
621.73	-0.726
622.06	-0.693
622.38	-0.653
622.71	-0.623
623.04	-0.584
623.37	-0.531
623.70	-0.527
624.02	-0.465
624.35	-0.456
624.68	-0.452
625.01	-0.421
625.34	-0.387
625.66	-0.382
625.99	-0.373
626.32	-0.373
626.65	-0.382
626.98	-0.404
627.30	-0.400
627.63	-0.432
627.96	-0.486
628.29	-0.519
628.61	-0.574
628.94	-0.637
629.27	-0.681
629.60	-0.752
629.92	-0.768
630.25	-0.819
630.58	-0.855
630.91	-0.878
631.23	-0.889
631.56	-0.872
631.89	-0.906
632.21	-0.923
632.54	-0.943
632.87	-0.982
633.19	-1.009
633.52	-1.057
633.85	-1.079
634.18	-1.124
634.50	-1.195
634.83	-1.242
635.16	-1.318
635.48	-1.382
635.81	-1.428
636.14	-1.489
636.46	-1.500
636.79	-1.531
637.11	-1.590
637.44	-1.645
637.77	-1.676
638.09	-1.708
638.42	-1.758
638.75	-1.779
639.07	-1.776
639.40	-1.811
639.73	-1.797
640.05	-1.831
640.38	-1.808
640.70	-1.809
641.03	-1.826
641.36	-1.834
641.68	-1.844
642.01	-1.842
642.33	-1.823
642.66	-1.833
642.98	-1.845
643.31	-1.868
643.64	-1.867
643.96	-1.889
644.29	-1.882
644.61	-1.837
644.94	-1.823
645.26	-1.789
645.59	-1.755
645.91	-1.737
646.24	-1.690
646.56	-1.659
646.89	-1.607
647.22	-1.596
647.54	-1.586
647.87	-1.547
648.19	-1.577
648.52	-1.584
648.84	-1.607
649.17	-1.653
649.49	-1.673
649.82	-1.708
650.14	-1.708
650.47	-1.746
650.79	-1.740
651.11	-1.761
651.44	-1.804
651.76	-1.820
652.09	-1.797
652.41	-1.752
652.74	-1.708
653.06	-1.695
653.39	-1.674
653.71	-1.643
654.04	-1.603
654.36	-1.591
654.68	-1.546
655.01	-1.507
655.33	-1.419
655.66	-1.388
655.98	-1.389
656.30	-1.399
656.63	-1.366
656.95	-1.329
657.28	-1.306
657.60	-1.334
657.92	-1.349
658.25	-1.363
658.57	-1.373
658.90	-1.428
659.22	-1.475
659.54	-1.505
659.87	-1.503
660.19	-1.560
660.51	-1.634
660.84	-1.696
661.16	-1.721
661.48	-1.730
661.81	-1.749
662.13	-1.776
662.45	-1.766
662.78	-1.742
663.10	-1.699
663.42	-1.664
663.75	-1.593
664.07	-1.568
664.39	-1.582
664.72	-1.547
665.04	-1.511
665.36	-1.438
665.69	-1.371
666.01	-1.296
666.33	-1.259
666.65	-1.221
666.98	-1.148
667.30	-1.113
667.62	-1.019
667.94	-0.892
668.27	-0.765
668.59	-0.658
668.91	-0.563
669.23	-0.510
669.56	-0.452
669.88	-0.313
670.20	-0.255
670.52	-0.186
670.85	-0.137
671.17	-0.042
671.49	0.044
671.81	0.096
672.13	0.150
672.46	0.226
672.78	0.376
673.10	0.517
673.42	0.586
673.74	0.756
674.07	0.837
674.39	1.065
674.71	1.166
675.03	1.336
675.35	1.517
675.67	1.701
676.00	1.809
676.32	1.885
676.64	1.949
676.96	2.093
677.28	2.184
677.60	2.338
677.92	2.408
678.25	2.545
678.57	2.612
678.89	2.609
679.21	2.683
679.53	2.798
679.85	2.905
680.17	3.061
680.49	3.099
680.81	3.214
681.13	3.266
681.46	3.342
681.78	3.416
682.10	3.543
682.42	3.710
682.74	3.836
683.06	3.924
683.38	4.073
683.70	4.130
684.02	4.288
684.34	4.371
684.66	4.476
684.98	4.546
685.30	4.648
685.62	4.703
685.94	4.777
686.26	4.775
686.58	4.775
686.90	4.767
687.22	4.775
687.54	4.729
687.86	4.680
688.18	4.635
688.50	4.601
688.82	4.543
689.14	4.486
689.46	4.469
689.78	4.458
690.10	4.491
690.42	4.418
690.74	4.469
691.06	4.506
691.38	4.546
691.70	4.629
692.02	4.724
692.34	4.763
692.66	4.832
692.98	4.866
693.30	4.930
693.62	5.009
693.94	5.167
694.26	5.223
694.57	5.309
694.89	5.414
695.21	5.553
695.53	5.665
695.85	5.804
696.17	5.907
696.49	6.085
696.81	6.239
697.13	6.369
697.44	6.476
697.76	6.686
698.08	6.914
698.40	7.098
698.72	7.239
699.04	7.460
699.36	7.698
699.67	7.928
699.99	8.101
700.31	8.353
700.63	8.603
700.95	8.955
701.27	9.132
701.58	9.409
701.90	9.654
702.22	9.968
702.54	10.123
702.86	10.327
703.17	10.569
703.49	10.838
703.81	11.043
704.13	11.271
704.45	11.396
704.76	11.654
705.08	11.825
705.40	12.057
705.72	12.246
706.03	12.574
706.35	12.826
706.67	13.076
706.99	13.298
707.30	13.528
707.62	13.818
707.94	14.137
708.26	14.345
708.57	14.601
708.89	14.906
709.21	15.202
709.53	15.379
709.84	15.689
710.16	15.978
710.48	16.271
710.79	16.649
711.11	16.870
711.43	17.097
711.74	17.405
712.06	17.629
712.38	17.927
712.69	18.109
713.01	18.439
713.33	18.707
713.64	19.063
713.96	19.407
714.28	19.725
714.59	20.148
714.91	20.509
715.23	20.984
715.54	21.298
715.86	21.661
716.17	22.172
716.49	22.630
716.81	23.059
717.12	23.410
717.44	23.848
717.76	24.258
718.07	24.648
718.39	25.102
718.70	25.376
719.02	25.876
719.33	26.244
719.65	26.454
719.97	26.612
720.28	26.862
720.60	27.245
720.91	27.484
721.23	27.783
721.54	28.023
721.86	28.285
722.17	28.731
722.49	29.052
722.81	29.315
723.12	29.737
723.44	30.169
723.75	30.582
724.07	30.808
724.38	31.167
724.70	31.532
725.01	31.854
725.33	32.161
725.64	32.348
725.96	32.669
726.27	32.948
726.59	33.291
726.90	33.538
727.22	33.665
727.53	33.905
727.84	34.115
728.16	34.282
728.47	34.457
728.79	34.744
729.10	34.970
729.42	35.157
729.73	35.382
730.05	35.565
730.36	35.868
730.67	36.153
730.99	36.486
731.30	36.693
731.62	36.930
731.93	37.284
732.24	37.471
732.56	37.769
732.87	38.116
733.19	38.430
733.50	38.661
733.81	38.961
734.13	39.327
734.44	39.613
734.76	39.840
735.07	40.101
735.38	40.305
735.70	40.596
736.01	40.673
736.32	40.777
736.64	41.074
736.95	41.239
737.26	41.228
737.58	41.264
737.89	41.390
738.20	41.718
738.52	41.923
738.83	42.032
739.14	42.122
739.45	42.287
739.77	42.559
740.08	42.596
740.39	42.682
740.71	43.048
741.02	43.186
741.33	43.242
741.64	43.320
741.96	43.477
742.27	43.492
742.58	43.649
742.90	43.945
743.21	43.875
743.52	44.076
743.83	44.392
744.14	44.356
744.46	44.589
744.77	44.744
745.08	44.820
745.39	44.856
745.71	45.125
746.02	45.204
746.33	45.227
746.64	45.429
746.95	45.506
747.27	45.625
747.58	45.815
747.89	45.851
748.20	45.723
748.51	45.853
748.82	45.773
749.14	45.860
749.45	46.032
749.76	45.978
750.07	46.030
750.38	46.106
750.69	46.000
751.01	45.852
751.32	45.918
751.63	46.078
751.94	45.951
752.25	46.077
752.56	46.076
752.87	45.879
753.18	45.916
753.49	45.775
753.81	45.762
754.12	45.960
754.43	46.041
754.74	46.019
755.05	46.159
755.36	46.391
755.67	46.405
755.98	46.530
756.29	46.626
756.60	46.658
756.91	46.725
757.22	46.741
757.53	46.803
757.84	47.009
758.15	47.187
758.46	47.373
758.77	47.307
759.09	47.430
759.40	47.413
759.71	47.366
760.02	47.476
760.33	47.384
760.64	47.306
760.95	47.311
761.26	47.142
761.57	46.960
761.88	46.772
762.18	46.729
762.49	46.583
762.80	46.561
763.11	46.599
763.42	46.399
763.73	46.460
764.04	46.364
764.35	46.195
764.66	46.073
764.97	45.969
765.28	45.952
765.59	45.746
765.90	45.538
766.21	45.073
766.52	44.938
766.83	44.781
767.14	44.567
767.44	44.435
767.75	44.054
768.06	43.917
768.37	43.745
768.68	43.491
768.99	43.295
769.30	43.320
769.61	43.216
769.91	43.027
770.22	42.997
770.53	42.961
770.84	42.899
771.15	43.097
771.46	43.138
771.77	43.087
772.07	43.064
772.38	43.086
772.69	43.051
773.00	43.368
773.31	43.268
773.61	43.153
773.92	43.080
774.23	42.986
774.54	42.630
774.85	42.409
775.15	42.333
775.46	41.999
775.77	42.183
776.08	42.132
776.39	41.815
776.69	41.982
777.00	41.994
777.31	41.962
777.62	42.144
777.92	42.296
778.23	42.581
778.54	42.692
778.85	42.977
779.15	42.911
779.46	42.850
779.77	43.114
780.07	43.393
780.38	43.606
780.69	43.562
781.00	43.310
781.30	43.366
781.61	43.051
781.92	42.983
782.22	43.100
782.53	42.976
782.84	42.886
783.14	43.002
783.45	42.743
783.76	42.949
784.06	42.877
784.37	42.846
784.68	42.743
784.98	42.947
785.29	43.199
785.60	43.159
785.90	43.246
786.21	43.391
786.51	43.155
786.82	43.296
787.13	43.023
787.43	43.410
787.74	43.606
788.04	43.787
788.35	43.908
788.66	43.754
788.96	43.822
789.27	43.777
789.57	43.673
789.88	43.808
790.19	43.476
790.49	43.589
790.80	43.300
791.10	43.071
791.41	43.078
791.71	42.988
792.02	43.353
792.32	43.101
792.63	43.121
792.93	43.252
793.24	43.163
793.54	43.281
793.85	43.261
794.15	43.297
794.46	43.321
794.76	43.326
795.07	43.465
795.37	43.272
795.68	43.344
795.98	43.527
796.29	43.832
796.59	43.933
796.90	44.238
797.20	44.308
797.51	44.319
797.81	44.337
798.12	44.224
798.42	44.303
798.72	44.291
799.03	44.548
799.33	44.528
799.64	44.318
799.94	44.379
800.25	44.102
800.55	44.048
800.85	44.284
801.16	44.537
801.46	44.573
801.77	44.408
802.07	44.381
802.37	43.954
802.68	43.612
802.98	43.490
803.28	43.573
803.59	43.653
803.89	43.812
804.20	43.645
804.50	43.422
804.80	43.596
805.11	43.708
805.41	43.637
805.71	44.083
806.02	43.986
806.32	44.190
806.62	43.969
806.93	43.973
807.23	44.333
807.53	44.645
807.83	45.079
808.14	45.259
808.44	45.412
808.74	45.426
809.05	45.384
809.35	46.100
809.65	46.542
809.95	47.071
810.26	46.813
810.56	46.596
810.86	46.622
811.16	46.666
811.47	46.712
811.77	47.098
812.07	46.955
812.37	46.978
812.68	46.921
812.98	46.743
813.28	46.831
813.58	47.416
813.88	47.469
814.19	47.538
814.49	47.778
814.79	47.737
815.09	47.486
815.39	47.770
815.70	47.989
816.00	47.805
816.30	47.678
816.60	47.424
816.90	47.176
817.20	47.373
817.50	47.358
817.81	47.050
818.11	47.027
818.41	46.846
818.71	46.851
819.01	46.799
819.31	47.032
819.61	47.296
819.92	47.522
820.22	47.857
820.52	48.015
820.82	48.161
821.12	48.422
821.42	48.707
821.72	48.976
822.02	49.308
822.32	49.651
822.62	49.922
822.92	50.165
823.22	50.399
823.52	50.575
823.83	50.629
824.13	50.742
824.43	50.773
824.73	50.779
825.03	50.759
825.33	50.767
825.63	50.595
825.93	50.330
826.23	50.035
826.53	49.886
826.83	49.594
827.13	49.872
827.43	50.092
827.73	50.205
828.03	50.396
828.33	50.617
828.63	50.611
828.93	50.662
829.23	50.967
829.53	50.843
829.83	50.491
830.13	50.326
830.42	49.604
830.72	49.088
831.02	48.977
831.32	48.332
831.62	48.112
831.92	47.879
832.22	47.871
832.52	47.603
832.82	47.921
833.12	48.097
833.42	48.383
833.72	48.620
834.01	48.718
834.31	48.712
834.61	49.201
834.91	49.704
835.21	50.038
835.51	50.128
835.81	50.409
836.11	50.224
836.40	50.572
836.70	50.770
837.00	50.693
837.30	50.605
837.60	50.782
837.90	50.493
838.19	49.947
838.49	49.789
838.79	50.137
839.09	50.363
839.39	50.796
839.68	50.708
839.98	49.819
840.28	49.606
840.58	49.556
840.88	50.232
841.17	49.915
841.47	50.035
841.77	50.262
842.07	49.496
842.36	48.754
842.66	48.189
842.96	47.137
843.26	46.686
843.55	46.793
843.85	46.453
844.15	44.674
844.45	44.842
844.74	44.311
845.04	43.338
845.34	43.879
845.63	44.275
845.93	44.809
846.23	46.296
846.53	47.717
846.82	47.126
847.12	48.454
847.42	49.429
847.71	48.010
848.01	47.607
848.31	47.679
848.60	47.217
848.90	46.136
849.19	45.497
849.49	44.586
849.79	45.155
850.08	46.713
850.38	45.678
850.68	44.975
850.97	47.077
851.27	47.593
851.56	47.055
851.86	47.788
852.16	49.661
852.45	48.511
852.75	48.318
853.04	48.765
853.34	46.725
853.64	47.022
853.93	45.073
854.23	44.714
854.52	45.354
854.82	46.768
855.11	45.991
855.41	46.218
855.70	47.982
856.00	46.859
856.30	45.211
856.59	46.276
856.89	47.702
857.18	50.855
857.48	50.748
857.77	50.393
858.07	49.883
858.36	48.548
858.66	47.133
858.95	46.658
859.25	47.308
859.54	48.371
859.84	49.468
860.13	47.064
860.42	46.474
860.72	46.426
861.01	46.955
861.31	46.459
861.60	49.419
861.90	49.553
862.19	48.920
862.49	49.550
862.78	48.144
863.07	47.290
863.37	48.710
863.66	48.000
863.96	50.665
864.25	50.145
864.54	49.766
864.84	48.347
865.13	49.342
865.43	50.764
865.72	53.809
866.01	40.823
866.31	44.197
866.60	51.693
866.89	56.181
>>>>>End Spectral Data<<<<<
