OOIBase32 Version 2.0.0.6 Data File
++++++++++++++++++++++++++++++++++++
Date: 01-22-2012, 22:05:22
User: Valued Ocean Optics Customer
Spectrometer Serial Number: USB2E2917
Spectrometer Channel: Master
Integration Time (msec): 4
Spectra Averaged: 10
Boxcar Smoothing: 5
Correct for Electrical Dark: Enabled
Time Normalized: Disabled
Dual-beam Reference: Disabled
Reference Channel: Master
Temperature: Not acquired
Spectrometer Type: S2000
ADC Type: USB2000
Number of Pixels in File: 2048
Graph Title: 
>>>>>Begin Spectral Data<<<<<
180.30	0.000
180.67	0.000
181.03	61.851
181.40	103.821
181.77	283.677
182.14	49.540
182.51	-13.319
182.88	86.687
183.25	28.950
183.62	18.533
183.99	146.373
184.36	-143.293
184.73	38.140
185.10	-614.211
185.46	-119.845
185.83	-1750.243
186.20	-145.826
186.57	-159.418
186.94	85.559
187.31	39.593
187.68	136.910
188.05	-231.310
188.42	-131.400
188.78	163.017
189.15	49.261
189.52	7.013
189.89	-38.582
190.26	-52.566
190.63	-2.343
191.00	-1.286
191.37	-5.796
191.73	-22.948
192.10	-29.330
192.47	-18.837
192.84	-8.750
193.21	24.419
193.58	47.973
193.94	69.778
194.31	63.251
194.68	43.389
195.05	29.145
195.42	16.950
195.79	-3.936
196.15	2.468
196.52	-5.879
196.89	-4.126
197.26	-24.412
197.63	-30.079
198.00	-105.550
198.36	-98.768
198.73	-26.884
199.10	36.510
199.47	43.151
199.84	74.259
200.20	45.501
200.57	42.440
200.94	7.795
201.31	1.442
201.68	-23.636
202.04	7.540
202.41	2.578
202.78	4.593
203.15	-26.048
203.51	-1.845
203.88	-5.322
204.25	7.113
204.62	10.247
204.98	19.079
205.35	5.254
205.72	6.160
206.09	13.891
206.46	4.310
206.82	-7.552
207.19	-1.080
207.56	-13.530
207.92	-16.728
208.29	-4.487
208.66	3.141
209.03	3.909
209.39	12.857
209.76	8.953
210.13	-20.703
210.50	-5.415
210.86	-13.923
211.23	5.400
211.60	19.990
211.96	38.353
212.33	7.904
212.70	44.111
213.07	47.613
213.43	45.134
213.80	36.629
214.17	48.105
214.53	45.266
214.90	52.531
215.27	49.899
215.63	29.735
216.00	-4.783
216.37	-0.155
216.74	-6.862
217.10	-8.908
217.47	-12.398
217.84	0.790
218.20	13.474
218.57	15.723
218.94	10.550
219.30	-5.994
219.67	4.273
220.04	31.400
220.40	30.939
220.77	22.028
221.13	17.219
221.50	11.877
221.87	12.429
222.23	8.333
222.60	-0.520
222.97	7.866
223.33	8.941
223.70	10.372
224.07	7.082
224.43	3.607
224.80	7.209
225.16	7.335
225.53	6.446
225.90	7.139
226.26	5.228
226.63	5.423
226.99	4.017
227.36	5.242
227.73	5.951
228.09	5.849
228.46	6.373
228.82	4.817
229.19	4.144
229.56	5.009
229.92	3.292
230.29	4.908
230.65	10.090
231.02	12.619
231.38	11.328
231.75	10.975
232.12	9.275
232.48	9.056
232.85	10.423
233.21	9.093
233.58	7.706
233.94	8.840
234.31	6.901
234.68	3.375
235.04	2.301
235.41	2.076
235.77	3.134
236.14	1.883
236.50	0.438
236.87	0.394
237.23	1.419
237.60	1.947
237.96	1.634
238.33	0.885
238.69	-0.886
239.06	-1.016
239.42	-0.517
239.79	-1.025
240.15	0.551
240.52	1.519
240.88	1.584
241.25	1.973
241.61	1.962
241.98	1.471
242.34	2.077
242.71	2.090
243.07	2.219
243.44	2.401
243.80	2.384
244.17	2.861
244.53	3.099
244.90	3.244
245.26	3.358
245.63	3.310
245.99	3.615
246.36	3.521
246.72	3.854
247.09	3.899
247.45	3.954
247.81	3.895
248.18	3.696
248.54	3.586
248.91	3.957
249.27	3.765
249.64	4.003
250.00	4.574
250.36	4.418
250.73	4.636
251.09	3.990
251.46	4.175
251.82	4.513
252.19	3.813
252.55	3.992
252.91	2.602
253.28	1.956
253.64	2.284
254.01	1.543
254.37	2.390
254.73	2.278
255.10	2.328
255.46	1.900
255.83	1.715
256.19	2.015
256.55	1.956
256.92	2.334
257.28	2.870
257.65	2.514
258.01	2.643
258.37	2.619
258.74	2.681
259.10	2.850
259.46	2.846
259.83	2.745
260.19	2.578
260.55	2.650
260.92	2.747
261.28	2.283
261.64	2.587
262.01	2.424
262.37	2.121
262.73	2.112
263.10	2.161
263.46	2.713
263.82	3.049
264.19	3.065
264.55	3.277
264.91	3.038
265.28	3.313
265.64	3.166
266.00	3.132
266.37	3.045
266.73	3.123
267.09	2.854
267.46	2.307
267.82	2.452
268.18	2.837
268.54	2.583
268.91	2.728
269.27	2.858
269.63	3.084
270.00	2.900
270.36	2.799
270.72	2.989
271.08	3.450
271.45	3.655
271.81	3.661
272.17	3.445
272.53	3.630
272.90	3.600
273.26	3.845
273.62	3.545
273.98	3.930
274.35	3.926
274.71	3.537
275.07	3.467
275.43	3.740
275.80	3.513
276.16	3.641
276.52	3.393
276.88	3.353
277.25	2.800
277.61	2.780
277.97	2.813
278.33	3.312
278.69	3.466
279.06	3.313
279.42	3.213
279.78	3.249
280.14	3.208
280.50	3.315
280.87	3.172
281.23	3.246
281.59	3.312
281.95	3.290
282.31	3.234
282.68	3.145
283.04	3.235
283.40	3.111
283.76	3.168
284.12	3.307
284.48	3.410
284.85	3.609
285.21	3.763
285.57	3.755
285.93	3.838
286.29	3.676
286.65	3.845
287.02	3.754
287.38	3.952
287.74	3.855
288.10	3.744
288.46	3.722
288.82	3.782
289.18	3.972
289.54	4.093
289.91	3.953
290.27	4.116
290.63	4.212
290.99	4.459
291.35	4.607
291.71	4.980
292.07	5.340
292.43	5.425
292.79	5.418
293.16	5.298
293.52	5.774
293.88	5.905
294.24	6.025
294.60	6.354
294.96	6.474
295.32	6.399
295.68	6.462
296.04	6.451
296.40	6.596
296.76	6.972
297.12	7.207
297.49	7.232
297.85	7.629
298.21	8.049
298.57	8.015
298.93	8.125
299.29	8.302
299.65	8.601
300.01	8.743
300.37	8.751
300.73	8.875
301.09	9.247
301.45	9.538
301.81	9.564
302.17	9.440
302.53	9.667
302.89	9.890
303.25	10.321
303.61	10.389
303.97	10.497
304.33	10.822
304.69	10.858
305.05	10.801
305.41	10.501
305.77	10.447
306.13	10.464
306.49	10.295
306.85	10.316
307.21	10.381
307.57	10.391
307.93	10.443
308.29	10.654
308.65	10.650
309.01	10.599
309.37	10.889
309.73	11.000
310.09	11.197
310.45	11.323
310.81	11.340
311.17	11.042
311.53	11.056
311.89	11.258
312.25	11.196
312.61	11.081
312.96	11.352
313.32	11.247
313.68	11.060
314.04	10.819
314.40	10.895
314.76	10.868
315.12	10.923
315.48	10.833
315.84	10.505
316.20	10.550
316.56	10.631
316.92	10.476
317.27	10.532
317.63	10.561
317.99	10.808
318.35	10.744
318.71	10.905
319.07	10.861
319.43	10.869
319.79	11.039
320.15	10.932
320.50	11.052
320.86	11.095
321.22	10.977
321.58	10.977
321.94	10.817
322.30	10.784
322.66	10.656
323.01	10.694
323.37	10.703
323.73	10.639
324.09	10.394
324.45	10.246
324.81	9.899
325.17	9.761
325.52	9.766
325.88	9.652
326.24	9.437
326.60	9.334
326.96	9.211
327.31	9.212
327.67	9.141
328.03	9.080
328.39	9.034
328.75	9.225
329.11	9.262
329.46	9.138
329.82	9.061
330.18	9.192
330.54	9.206
330.90	9.336
331.25	9.177
331.61	9.076
331.97	9.209
332.33	9.287
332.68	9.147
333.04	9.168
333.40	9.289
333.76	9.387
334.11	9.270
334.47	9.214
334.83	9.180
335.19	9.209
335.54	9.331
335.90	9.413
336.26	9.263
336.62	9.217
336.97	9.083
337.33	8.980
337.69	8.866
338.05	8.938
338.40	8.965
338.76	8.985
339.12	9.055
339.48	9.088
339.83	8.967
340.19	8.979
340.55	9.128
340.90	9.173
341.26	9.343
341.62	9.519
341.97	9.418
342.33	9.270
342.69	9.193
343.04	9.075
343.40	9.020
343.76	8.949
344.12	9.009
344.47	8.958
344.83	8.967
345.19	8.823
345.54	8.610
345.90	8.746
346.26	8.804
346.61	8.865
346.97	8.804
347.32	8.589
347.68	8.592
348.04	8.551
348.39	8.404
348.75	8.273
349.11	8.103
349.46	8.066
349.82	7.893
350.18	7.922
350.53	7.747
350.89	7.783
351.24	7.816
351.60	7.784
351.96	7.642
352.31	7.694
352.67	7.742
353.02	7.830
353.38	7.845
353.74	7.875
354.09	7.757
354.45	7.765
354.80	7.686
355.16	7.722
355.52	7.677
355.87	7.608
356.23	7.569
356.58	7.628
356.94	7.632
357.29	7.584
357.65	7.558
358.00	7.575
358.36	7.640
358.72	7.656
359.07	7.581
359.43	7.593
359.78	7.648
360.14	7.625
360.49	7.509
360.85	7.452
361.20	7.432
361.56	7.349
361.91	7.298
362.27	7.232
362.62	7.163
362.98	7.159
363.33	7.151
363.69	7.144
364.04	7.107
364.40	7.108
364.75	7.023
365.11	7.042
365.46	7.037
365.82	7.049
366.17	7.031
366.53	7.005
366.88	7.021
367.24	6.980
367.59	6.973
367.95	7.006
368.30	6.944
368.66	6.995
369.01	6.939
369.37	6.932
369.72	6.943
370.08	6.876
370.43	6.908
370.78	6.875
371.14	6.900
371.49	6.886
371.85	6.872
372.20	6.948
372.56	6.902
372.91	6.873
373.26	6.900
373.62	6.828
373.97	6.790
374.33	6.740
374.68	6.701
375.03	6.636
375.39	6.584
375.74	6.510
376.10	6.435
376.45	6.474
376.80	6.530
377.16	6.489
377.51	6.504
377.87	6.581
378.22	6.647
378.57	6.713
378.93	6.705
379.28	6.738
379.63	6.756
379.99	6.830
380.34	6.840
380.70	6.835
381.05	6.872
381.40	6.866
381.76	6.851
382.11	6.840
382.46	6.802
382.82	6.783
383.17	6.795
383.52	6.764
383.88	6.689
384.23	6.638
384.58	6.578
384.94	6.527
385.29	6.532
385.64	6.500
385.99	6.431
386.35	6.406
386.70	6.330
387.05	6.292
387.41	6.284
387.76	6.274
388.11	6.288
388.47	6.268
388.82	6.237
389.17	6.223
389.52	6.177
389.88	6.163
390.23	6.158
390.58	6.206
390.93	6.204
391.29	6.204
391.64	6.213
391.99	6.184
392.34	6.192
392.70	6.169
393.05	6.104
393.40	6.098
393.75	6.061
394.11	6.025
394.46	5.952
394.81	5.887
395.16	5.811
395.52	5.697
395.87	5.629
396.22	5.540
396.57	5.454
396.92	5.354
397.28	5.231
397.63	5.147
397.98	5.037
398.33	4.976
398.68	4.859
399.04	4.786
399.39	4.723
399.74	4.666
400.09	4.652
400.44	4.598
400.80	4.590
401.15	4.632
401.50	4.650
401.85	4.659
402.20	4.639
402.55	4.685
402.90	4.705
403.26	4.697
403.61	4.682
403.96	4.650
404.31	4.698
404.66	4.677
405.01	4.603
405.36	4.547
405.72	4.494
406.07	4.475
406.42	4.384
406.77	4.306
407.12	4.315
407.47	4.254
407.82	4.196
408.17	4.157
408.53	4.143
408.88	4.133
409.23	4.120
409.58	4.109
409.93	4.057
410.28	4.067
410.63	4.033
410.98	4.014
411.33	4.041
411.68	4.040
412.03	4.013
412.38	4.011
412.73	4.059
413.09	4.075
413.44	4.116
413.79	4.223
414.14	4.305
414.49	4.409
414.84	4.468
415.19	4.536
415.54	4.612
415.89	4.669
416.24	4.772
416.59	4.828
416.94	4.900
417.29	4.928
417.64	4.974
417.99	5.003
418.34	5.014
418.69	5.023
419.04	5.000
419.39	5.018
419.74	5.039
420.09	5.007
420.44	5.008
420.79	4.965
421.14	4.969
421.49	4.940
421.84	4.905
422.19	4.892
422.54	4.890
422.89	4.920
423.24	4.888
423.59	4.855
423.94	4.833
424.29	4.767
424.64	4.742
424.99	4.697
425.34	4.639
425.68	4.589
426.03	4.552
426.38	4.489
426.73	4.415
427.08	4.372
427.43	4.388
427.78	4.389
428.13	4.417
428.48	4.450
428.83	4.440
429.18	4.479
429.53	4.476
429.87	4.496
430.22	4.485
430.57	4.487
430.92	4.504
431.27	4.463
431.62	4.447
431.97	4.422
432.32	4.400
432.67	4.403
433.01	4.354
433.36	4.345
433.71	4.303
434.06	4.268
434.41	4.230
434.76	4.193
435.11	4.203
435.45	4.190
435.80	4.200
436.15	4.190
436.50	4.200
436.85	4.214
437.20	4.243
437.54	4.259
437.89	4.275
438.24	4.300
438.59	4.327
438.94	4.308
439.29	4.312
439.63	4.287
439.98	4.266
440.33	4.236
440.68	4.230
441.03	4.201
441.37	4.201
441.72	4.234
442.07	4.248
442.42	4.268
442.76	4.296
443.11	4.310
443.46	4.326
443.81	4.368
444.16	4.392
444.50	4.391
444.85	4.390
445.20	4.378
445.55	4.345
445.89	4.311
446.24	4.262
446.59	4.207
446.94	4.131
447.28	4.068
447.63	4.000
447.98	3.943
448.32	3.855
448.67	3.801
449.02	3.736
449.37	3.684
449.71	3.657
450.06	3.620
450.41	3.610
450.75	3.652
451.10	3.650
451.45	3.624
451.79	3.579
452.14	3.604
452.49	3.588
452.84	3.579
453.18	3.571
453.53	3.546
453.88	3.522
454.22	3.543
454.57	3.548
454.92	3.599
455.26	3.639
455.61	3.703
455.95	3.738
456.30	3.777
456.65	3.809
456.99	3.867
457.34	3.930
457.69	3.982
458.03	3.972
458.38	3.962
458.73	3.923
459.07	3.889
459.42	3.850
459.76	3.804
460.11	3.751
460.46	3.716
460.80	3.643
461.15	3.539
461.49	3.467
461.84	3.408
462.19	3.341
462.53	3.321
462.88	3.292
463.22	3.288
463.57	3.302
463.91	3.329
464.26	3.334
464.61	3.330
464.95	3.350
465.30	3.348
465.64	3.364
465.99	3.370
466.33	3.378
466.68	3.387
467.02	3.365
467.37	3.334
467.71	3.302
468.06	3.262
468.41	3.217
468.75	3.186
469.10	3.156
469.44	3.107
469.79	3.096
470.13	3.040
470.48	3.008
470.82	2.971
471.17	2.953
471.51	2.938
471.86	2.916
472.20	2.923
472.55	2.894
472.89	2.870
473.23	2.841
473.58	2.795
473.92	2.791
474.27	2.776
474.61	2.764
474.96	2.742
475.30	2.700
475.65	2.676
475.99	2.656
476.34	2.676
476.68	2.675
477.02	2.724
477.37	2.752
477.71	2.778
478.06	2.851
478.40	2.993
478.75	3.169
479.09	3.377
479.43	3.579
479.78	3.748
480.12	3.894
480.47	4.041
480.81	4.165
481.15	4.274
481.50	4.371
481.84	4.468
482.19	4.532
482.53	4.589
482.87	4.604
483.22	4.597
483.56	4.590
483.90	4.567
484.25	4.537
484.59	4.478
484.94	4.426
485.28	4.369
485.62	4.285
485.97	4.185
486.31	4.091
486.65	4.019
487.00	3.958
487.34	3.901
487.68	3.846
488.03	3.785
488.37	3.742
488.71	3.700
489.06	3.663
489.40	3.618
489.74	3.596
490.09	3.546
490.43	3.482
490.77	3.413
491.11	3.326
491.46	3.237
491.80	3.152
492.14	3.054
492.49	2.947
492.83	2.831
493.17	2.714
493.51	2.590
493.86	2.486
494.20	2.429
494.54	2.383
494.88	2.367
495.23	2.365
495.57	2.350
495.91	2.350
496.25	2.346
496.60	2.338
496.94	2.328
497.28	2.314
497.62	2.288
497.97	2.222
498.31	2.191
498.65	2.150
498.99	2.129
499.33	2.117
499.68	2.090
500.02	2.060
500.36	2.041
500.70	2.032
501.04	2.013
501.39	1.995
501.73	1.995
502.07	1.981
502.41	1.976
502.75	1.947
503.09	1.925
503.44	1.914
503.78	1.922
504.12	1.911
504.46	1.903
504.80	1.923
505.14	1.941
505.49	1.948
505.83	1.970
506.17	1.991
506.51	2.003
506.85	2.011
507.19	2.008
507.53	1.976
507.87	1.983
508.22	1.978
508.56	1.939
508.90	1.899
509.24	1.865
509.58	1.804
509.92	1.752
510.26	1.705
510.60	1.659
510.94	1.624
511.28	1.600
511.63	1.545
511.97	1.502
512.31	1.482
512.65	1.489
512.99	1.472
513.33	1.503
513.67	1.531
514.01	1.576
514.35	1.615
514.69	1.674
515.03	1.731
515.37	1.794
515.71	1.835
516.05	1.893
516.39	1.910
516.73	1.932
517.07	1.923
517.41	1.897
517.75	1.835
518.09	1.761
518.43	1.649
518.77	1.523
519.11	1.397
519.45	1.276
519.79	1.127
520.13	1.015
520.47	0.941
520.81	0.864
521.15	0.822
521.49	0.846
521.83	0.875
522.17	0.943
522.51	1.051
522.85	1.165
523.19	1.342
523.53	1.559
523.87	1.782
524.21	2.000
524.55	2.198
524.89	2.365
525.23	2.500
525.57	2.623
525.91	2.737
526.25	2.820
526.58	2.887
526.92	2.926
527.26	2.931
527.60	2.912
527.94	2.860
528.28	2.787
528.62	2.718
528.96	2.628
529.30	2.536
529.64	2.438
529.97	2.335
530.31	2.245
530.65	2.138
530.99	2.042
531.33	1.967
531.67	1.910
532.01	1.871
532.35	1.811
532.68	1.744
533.02	1.676
533.36	1.588
533.70	1.517
534.04	1.408
534.38	1.308
534.71	1.219
535.05	1.098
535.39	0.995
535.73	0.916
536.07	0.877
536.41	0.899
536.74	0.982
537.08	1.086
537.42	1.185
537.76	1.305
538.10	1.442
538.43	1.564
538.77	1.694
539.11	1.785
539.45	1.866
539.79	1.935
540.12	1.978
540.46	1.969
540.80	1.935
541.14	1.874
541.47	1.817
541.81	1.707
542.15	1.599
542.49	1.467
542.82	1.343
543.16	1.185
543.50	1.012
543.84	0.851
544.17	0.701
544.51	0.578
544.85	0.485
545.18	0.341
545.52	0.244
545.86	0.099
546.20	-0.027
546.53	-0.171
546.87	-0.306
547.21	-0.452
547.54	-0.593
547.88	-0.736
548.22	-0.846
548.55	-0.952
548.89	-1.007
549.23	-1.053
549.56	-1.060
549.90	-1.080
550.24	-1.077
550.57	-1.077
550.91	-1.035
551.25	-1.039
551.58	-1.049
551.92	-1.081
552.26	-1.123
552.59	-1.162
552.93	-1.233
553.27	-1.294
553.60	-1.341
553.94	-1.400
554.27	-1.432
554.61	-1.508
554.95	-1.549
555.28	-1.572
555.62	-1.585
555.95	-1.568
556.29	-1.569
556.63	-1.553
556.96	-1.543
557.30	-1.522
557.63	-1.490
557.97	-1.476
558.31	-1.456
558.64	-1.433
558.98	-1.426
559.31	-1.391
559.65	-1.351
559.98	-1.348
560.32	-1.324
560.65	-1.236
560.99	-1.195
561.33	-1.122
561.66	-1.037
562.00	-0.954
562.33	-0.861
562.67	-0.767
563.00	-0.690
563.34	-0.659
563.67	-0.536
564.01	-0.452
564.34	-0.408
564.68	-0.343
565.01	-0.313
565.35	-0.282
565.68	-0.264
566.02	-0.246
566.35	-0.197
566.69	-0.151
567.02	-0.092
567.36	-0.086
567.69	-0.049
568.03	-0.037
568.36	-0.003
568.69	0.056
569.03	0.094
569.36	0.158
569.70	0.181
570.03	0.239
570.37	0.263
570.70	0.295
571.04	0.323
571.37	0.353
571.70	0.377
572.04	0.375
572.37	0.343
572.71	0.339
573.04	0.334
573.37	0.319
573.71	0.260
574.04	0.207
574.38	0.154
574.71	0.097
575.04	0.039
575.38	-0.045
575.71	-0.111
576.05	-0.157
576.38	-0.200
576.71	-0.276
577.05	-0.325
577.38	-0.374
577.71	-0.398
578.05	-0.466
578.38	-0.502
578.71	-0.568
579.05	-0.606
579.38	-0.631
579.71	-0.670
580.05	-0.721
580.38	-0.762
580.71	-0.754
581.05	-0.786
581.38	-0.803
581.71	-0.790
582.05	-0.769
582.38	-0.730
582.71	-0.684
583.04	-0.643
583.38	-0.584
583.71	-0.540
584.04	-0.472
584.38	-0.408
584.71	-0.316
585.04	-0.213
585.37	-0.104
585.71	0.010
586.04	0.124
586.37	0.253
586.70	0.369
587.04	0.471
587.37	0.547
587.70	0.622
588.03	0.634
588.37	0.696
588.70	0.697
589.03	0.698
589.36	0.668
589.69	0.654
590.03	0.636
590.36	0.597
590.69	0.548
591.02	0.556
591.35	0.572
591.69	0.610
592.02	0.629
592.35	0.664
592.68	0.733
593.01	0.795
593.35	0.828
593.68	0.842
594.01	0.878
594.34	0.903
594.67	0.899
595.00	0.910
595.34	0.904
595.67	0.888
596.00	0.845
596.33	0.755
596.66	0.658
596.99	0.578
597.32	0.487
597.65	0.422
597.99	0.331
598.32	0.302
598.65	0.259
598.98	0.248
599.31	0.240
599.64	0.273
599.97	0.329
600.30	0.423
600.63	0.494
600.96	0.602
601.30	0.658
601.63	0.749
601.96	0.816
602.29	0.834
602.62	0.862
602.95	0.851
603.28	0.881
603.61	0.867
603.94	0.835
604.27	0.816
604.60	0.793
604.93	0.767
605.26	0.748
605.59	0.680
605.92	0.654
606.25	0.644
606.58	0.632
606.91	0.609
607.24	0.641
607.57	0.655
607.90	0.690
608.23	0.666
608.56	0.666
608.89	0.619
609.22	0.573
609.55	0.541
609.88	0.495
610.21	0.470
610.54	0.377
610.87	0.278
611.20	0.197
611.53	0.093
611.86	0.069
612.19	0.024
612.52	-0.010
612.85	-0.005
613.18	-0.028
613.51	-0.105
613.84	-0.119
614.17	-0.087
614.49	-0.125
614.82	-0.140
615.15	-0.129
615.48	-0.173
615.81	-0.210
616.14	-0.186
616.47	-0.174
616.80	-0.158
617.13	-0.140
617.46	-0.137
617.78	-0.179
618.11	-0.172
618.44	-0.162
618.77	-0.199
619.10	-0.207
619.43	-0.199
619.76	-0.201
620.09	-0.241
620.41	-0.250
620.74	-0.238
621.07	-0.196
621.40	-0.147
621.73	-0.083
622.06	-0.007
622.38	0.086
622.71	0.173
623.04	0.248
623.37	0.287
623.70	0.386
624.02	0.452
624.35	0.536
624.68	0.562
625.01	0.620
625.34	0.667
625.66	0.640
625.99	0.634
626.32	0.650
626.65	0.611
626.98	0.616
627.30	0.594
627.63	0.571
627.96	0.517
628.29	0.486
628.61	0.433
628.94	0.424
629.27	0.426
629.60	0.408
629.92	0.344
630.25	0.366
630.58	0.370
630.91	0.370
631.23	0.347
631.56	0.363
631.89	0.340
632.21	0.347
632.54	0.296
632.87	0.252
633.19	0.201
633.52	0.192
633.85	0.142
634.18	0.091
634.50	0.017
634.83	0.016
635.16	-0.024
635.48	-0.098
635.81	-0.138
636.14	-0.139
636.46	-0.143
636.79	-0.134
637.11	-0.178
637.44	-0.172
637.77	-0.195
638.09	-0.199
638.42	-0.266
638.75	-0.294
639.07	-0.282
639.40	-0.346
639.73	-0.414
640.05	-0.448
640.38	-0.477
640.70	-0.443
641.03	-0.441
641.36	-0.427
641.68	-0.414
642.01	-0.331
642.33	-0.259
642.66	-0.193
642.98	-0.111
643.31	-0.016
643.64	0.110
643.96	0.155
644.29	0.177
644.61	0.236
644.94	0.337
645.26	0.408
645.59	0.458
645.91	0.495
646.24	0.545
646.56	0.619
646.89	0.604
647.22	0.583
647.54	0.625
647.87	0.667
648.19	0.685
648.52	0.647
648.84	0.673
649.17	0.653
649.49	0.623
649.82	0.612
650.14	0.556
650.47	0.617
650.79	0.645
651.11	0.677
651.44	0.676
651.76	0.720
652.09	0.721
652.41	0.744
652.74	0.724
653.06	0.760
653.39	0.757
653.71	0.830
654.04	0.835
654.36	0.850
654.68	0.845
655.01	0.838
655.33	0.749
655.66	0.756
655.98	0.750
656.30	0.818
656.63	0.825
656.95	0.867
657.28	0.873
657.60	0.824
657.92	0.793
658.25	0.756
658.57	0.751
658.90	0.746
659.22	0.653
659.54	0.567
659.87	0.472
660.19	0.394
660.51	0.255
660.84	0.190
661.16	0.168
661.48	0.132
661.81	0.086
662.13	0.091
662.45	0.096
662.78	0.117
663.10	0.156
663.42	0.181
663.75	0.157
664.07	0.234
664.39	0.204
664.72	0.244
665.04	0.292
665.36	0.337
665.69	0.299
666.01	0.274
666.33	0.315
666.65	0.348
666.98	0.359
667.30	0.347
667.62	0.333
667.94	0.338
668.27	0.308
668.59	0.247
668.91	0.237
669.23	0.220
669.56	0.205
669.88	0.192
670.20	0.129
670.52	0.120
670.85	0.146
671.17	0.110
671.49	0.096
671.81	0.116
672.13	0.090
672.46	0.120
672.78	0.093
673.10	0.135
673.42	0.154
673.74	0.163
674.07	0.164
674.39	0.203
674.71	0.315
675.03	0.367
675.35	0.389
675.67	0.532
676.00	0.581
676.32	0.670
676.64	0.686
676.96	0.749
677.28	0.809
677.60	0.838
677.92	0.892
678.25	0.915
678.57	0.956
678.89	1.003
679.21	1.003
679.53	0.939
679.85	0.912
680.17	0.926
680.49	0.915
680.81	0.887
681.13	0.862
681.46	0.816
681.78	0.794
682.10	0.796
682.42	0.800
682.74	0.764
683.06	0.835
683.38	0.957
683.70	1.004
684.02	1.069
684.34	1.186
684.66	1.303
684.98	1.404
685.30	1.484
685.62	1.460
685.94	1.429
686.26	1.456
686.58	1.434
686.90	1.361
687.22	1.363
687.54	1.315
687.86	1.239
688.18	1.141
688.50	1.047
688.82	0.932
689.14	0.962
689.46	0.928
689.78	0.852
690.10	0.780
690.42	0.750
690.74	0.611
691.06	0.540
691.38	0.397
691.70	0.326
692.02	0.231
692.34	0.222
692.66	0.106
692.98	0.057
693.30	-0.018
693.62	-0.012
693.94	-0.078
694.26	-0.114
694.57	0.000
694.89	0.096
695.21	0.102
695.53	0.224
695.85	0.251
696.17	0.306
696.49	0.362
696.81	0.453
697.13	0.493
697.44	0.464
697.76	0.474
698.08	0.359
698.40	0.216
698.72	0.115
699.04	-0.078
699.36	-0.271
699.67	-0.528
699.99	-0.846
700.31	-1.222
700.63	-1.627
700.95	-1.870
701.27	-2.173
701.58	-2.501
701.90	-2.675
702.22	-2.863
702.54	-3.068
702.86	-3.394
703.17	-3.620
703.49	-3.787
703.81	-3.898
704.13	-4.009
704.45	-4.256
704.76	-4.354
705.08	-4.395
705.40	-4.525
705.72	-4.592
706.03	-4.708
706.35	-4.708
706.67	-4.728
706.99	-4.718
707.30	-4.793
707.62	-4.794
707.94	-4.815
708.26	-4.952
708.57	-5.068
708.89	-5.186
709.21	-5.304
709.53	-5.360
709.84	-5.492
710.16	-5.543
710.48	-5.733
710.79	-5.716
711.11	-5.788
711.43	-5.646
711.74	-5.575
712.06	-5.526
712.38	-5.419
712.69	-5.296
713.01	-5.080
713.33	-4.915
713.64	-4.761
713.96	-4.471
714.28	-4.272
714.59	-4.075
714.91	-3.942
715.23	-3.741
715.54	-3.560
715.86	-3.379
716.17	-3.359
716.49	-3.451
716.81	-3.453
717.12	-3.671
717.44	-3.831
717.76	-4.073
718.07	-4.322
718.39	-4.767
718.70	-5.057
719.02	-5.582
719.33	-6.051
719.65	-6.463
719.97	-6.763
720.28	-7.015
720.60	-7.099
720.91	-7.407
721.23	-7.628
721.54	-7.690
721.86	-7.637
722.17	-7.732
722.49	-7.690
722.81	-7.629
723.12	-7.452
723.44	-7.356
723.75	-7.401
724.07	-7.433
724.38	-7.289
724.70	-7.204
725.01	-7.198
725.33	-7.160
725.64	-7.120
725.96	-7.118
726.27	-7.208
726.59	-7.272
726.90	-7.459
727.22	-7.438
727.53	-7.525
727.84	-7.785
728.16	-8.027
728.47	-8.309
728.79	-8.657
729.10	-9.077
729.42	-9.548
729.73	-10.028
730.05	-10.541
730.36	-11.045
730.67	-11.662
730.99	-12.199
731.30	-12.846
731.62	-13.521
731.93	-14.337
732.24	-15.198
732.56	-15.801
732.87	-16.373
733.19	-17.054
733.50	-17.951
733.81	-18.653
734.13	-19.378
734.44	-20.045
734.76	-20.550
735.07	-21.348
735.38	-22.157
735.70	-22.758
736.01	-23.323
736.32	-24.124
736.64	-24.640
736.95	-25.126
737.26	-25.590
737.58	-26.178
737.89	-26.801
738.20	-27.451
738.52	-27.766
738.83	-27.966
739.14	-28.508
739.45	-29.601
739.77	-30.110
740.08	-31.113
740.39	-32.162
740.71	-33.137
741.02	-34.258
741.33	-35.502
741.64	-36.480
741.96	-37.601
742.27	-38.367
742.58	-39.346
742.90	-39.753
743.21	-40.668
743.52	-41.504
743.83	-41.792
744.14	-42.341
744.46	-42.692
744.77	-42.957
745.08	-43.323
745.39	-43.918
745.71	-44.440
746.02	-44.360
746.33	-44.561
746.64	-44.346
746.95	-43.888
747.27	-44.180
747.58	-44.140
747.89	-43.968
748.20	-44.065
748.51	-43.913
748.82	-43.663
749.14	-43.761
749.45	-43.962
749.76	-44.063
750.07	-44.118
750.38	-44.467
750.69	-44.675
751.01	-45.296
751.32	-45.699
751.63	-45.719
751.94	-46.268
752.25	-46.223
752.56	-46.041
752.87	-46.051
753.18	-45.900
753.49	-46.145
753.81	-45.569
754.12	-44.392
754.43	-43.144
754.74	-41.693
755.05	-39.392
755.36	-36.822
755.67	-34.740
755.98	-32.264
756.29	-29.599
756.60	-26.669
756.91	-23.571
757.22	-20.563
757.53	-17.966
757.84	-15.368
758.15	-12.933
758.46	-11.219
758.77	-9.272
759.09	-7.541
759.40	-6.311
759.71	-5.323
760.02	-4.677
760.33	-4.129
760.64	-3.934
760.95	-3.862
761.26	-3.927
761.57	-4.167
761.88	-4.557
762.18	-5.197
762.49	-5.886
762.80	-6.605
763.11	-7.483
763.42	-8.626
763.73	-10.081
764.04	-11.617
764.35	-13.427
764.66	-15.489
764.97	-17.825
765.28	-20.176
765.59	-23.354
765.90	-26.559
766.21	-30.110
766.52	-33.015
766.83	-36.679
767.14	-39.771
767.44	-43.151
767.75	-46.151
768.06	-49.203
768.37	-51.746
768.68	-54.227
768.99	-55.802
769.30	-57.946
769.61	-59.797
769.91	-62.600
770.22	-63.199
770.53	-64.572
770.84	-65.680
771.15	-66.594
771.46	-67.810
771.77	-68.586
772.07	-70.084
772.38	-71.015
772.69	-71.148
773.00	-71.226
773.31	-71.382
773.61	-71.803
773.92	-71.845
774.23	-71.924
774.54	-71.925
774.85	-71.288
775.15	-70.526
775.46	-69.984
775.77	-70.016
776.08	-70.615
776.39	-70.190
776.69	-70.027
777.00	-70.188
777.31	-70.330
777.62	-69.910
777.92	-69.737
778.23	-69.385
778.54	-70.245
778.85	-70.112
779.15	-70.264
779.46	-69.822
779.77	-70.151
780.07	-70.112
780.38	-70.679
780.69	-70.065
781.00	-71.058
781.30	-71.021
781.61	-71.851
781.92	-70.466
782.22	-69.708
782.53	-68.424
782.84	-67.224
783.14	-66.770
783.45	-65.070
783.76	-62.839
784.06	-61.158
784.37	-58.005
784.68	-55.480
784.98	-53.149
785.29	-50.917
785.60	-49.113
785.90	-47.269
786.21	-45.730
786.51	-43.506
786.82	-41.933
787.13	-40.430
787.43	-39.344
787.74	-38.759
788.04	-38.464
788.35	-37.605
788.66	-38.336
788.96	-38.671
789.27	-39.177
789.57	-38.920
789.88	-39.912
790.19	-40.903
790.49	-42.164
790.80	-43.640
791.10	-44.250
791.41	-44.085
791.71	-44.622
792.02	-44.394
792.32	-44.673
792.63	-44.416
792.93	-44.368
793.24	-43.071
793.54	-42.658
793.85	-41.527
794.15	-39.811
794.46	-39.134
794.76	-39.005
795.07	-38.529
795.37	-37.654
795.68	-36.715
795.98	-35.888
796.29	-35.182
796.59	-34.907
796.90	-34.509
797.20	-34.924
797.51	-35.080
797.81	-35.016
798.12	-34.915
798.42	-34.609
798.72	-34.578
799.03	-34.109
799.33	-34.053
799.64	-34.516
799.94	-35.316
800.25	-35.329
800.55	-34.264
800.85	-34.246
801.16	-35.152
801.46	-35.447
801.77	-35.613
802.07	-36.155
802.37	-36.866
802.68	-37.376
802.98	-37.562
803.28	-37.476
803.59	-38.017
803.89	-38.783
804.20	-39.195
804.50	-38.177
804.80	-38.320
805.11	-38.105
805.41	-38.081
805.71	-37.924
806.02	-37.752
806.32	-37.582
806.62	-37.276
806.93	-36.610
807.23	-36.646
807.53	-35.403
807.83	-35.741
808.14	-35.240
808.44	-35.022
808.74	-34.382
809.05	-34.005
809.35	-32.810
809.65	-32.144
809.95	-30.985
810.26	-29.457
810.56	-28.275
810.86	-27.899
811.16	-25.794
811.47	-24.578
811.77	-23.214
812.07	-21.603
812.37	-19.803
812.68	-19.323
812.98	-18.441
813.28	-17.305
813.58	-16.439
813.88	-15.783
814.19	-14.329
814.49	-14.355
814.79	-12.917
815.09	-12.176
815.39	-11.650
815.70	-11.135
816.00	-10.693
816.30	-10.143
816.60	-9.623
816.90	-9.117
817.20	-7.811
817.50	-6.855
817.81	-5.014
818.11	-3.637
818.41	-2.419
818.71	-1.291
819.01	-0.481
819.31	0.381
819.61	1.075
819.92	1.547
820.22	1.954
820.52	2.228
820.82	2.423
821.12	2.618
821.42	2.704
821.72	2.811
822.02	2.817
822.32	2.787
822.62	2.751
822.92	2.676
823.22	2.532
823.52	2.415
823.83	2.298
824.13	2.142
824.43	1.822
824.73	1.632
825.03	1.396
825.33	1.222
825.63	1.109
825.93	0.970
826.23	0.693
826.53	0.632
826.83	0.489
827.13	0.249
827.43	-0.007
827.73	-0.135
828.03	-0.539
828.33	-1.012
828.63	-1.634
828.93	-2.176
829.23	-3.006
829.53	-3.688
829.83	-4.747
830.13	-5.748
830.42	-6.155
830.72	-6.066
831.02	-5.961
831.32	-5.676
831.62	-5.394
831.92	-4.885
832.22	-4.523
832.52	-4.384
832.82	-3.981
833.12	-3.637
833.42	-3.464
833.72	-3.651
834.01	-4.049
834.31	-4.417
834.61	-4.929
834.91	-5.772
835.21	-6.558
835.51	-7.576
835.81	-8.319
836.11	-9.798
836.40	-11.064
836.70	-12.788
837.00	-14.398
837.30	-16.112
837.60	-18.007
837.90	-19.566
838.19	-20.168
838.49	-20.934
838.79	-21.604
839.09	-21.736
839.39	-22.103
839.68	-22.859
839.98	-23.015
840.28	-22.765
840.58	-22.986
840.88	-23.535
841.17	-25.432
841.47	-26.353
841.77	-27.894
842.07	-31.090
842.36	-34.577
842.66	-36.420
842.96	-38.049
843.26	-42.573
843.55	-49.392
843.85	-53.488
844.15	-56.638
844.45	-56.966
844.74	-60.266
845.04	-65.647
845.34	-66.149
845.63	-68.622
845.93	-70.863
846.23	-73.839
846.53	-72.920
846.82	-69.492
847.12	-72.112
847.42	-71.947
847.71	-72.833
848.01	-75.166
848.31	-72.933
848.60	-73.801
848.90	-68.989
849.19	-72.643
849.49	-72.365
849.79	-74.111
850.08	-76.273
850.38	-71.042
850.68	-67.942
850.97	-65.093
851.27	-61.830
851.56	-59.263
851.86	-55.798
852.16	-59.218
852.45	-56.714
852.75	-59.195
853.04	-55.714
853.34	-54.611
853.64	-54.965
853.93	-57.679
854.23	-60.608
854.52	-62.460
854.82	-63.423
855.11	-65.316
855.41	-65.144
855.70	-65.578
856.00	-60.138
856.30	-63.591
856.59	-64.032
856.89	-65.978
857.18	-67.436
857.48	-63.114
857.77	-58.790
858.07	-60.015
858.36	-59.313
858.66	-57.397
858.95	-56.352
859.25	-56.790
859.54	-57.416
859.84	-57.252
860.13	-59.337
860.42	-51.295
860.72	-54.137
861.01	-57.695
861.31	-56.507
861.60	-58.013
861.90	-57.374
862.19	-59.633
862.49	-59.485
862.78	-53.204
863.07	-49.646
863.37	-45.769
863.66	-47.880
863.96	-48.098
864.25	-45.876
864.54	-46.026
864.84	-41.958
865.13	-42.433
865.43	-40.321
865.72	-42.800
866.01	-43.645
866.31	-28.910
866.60	-54.225
866.89	-49.704
>>>>>End Spectral Data<<<<<
