OOIBase32 Version 2.0.0.6 Data File
++++++++++++++++++++++++++++++++++++
Date: 01-20-2012, 22:47:45
User: Valued Ocean Optics Customer
Spectrometer Serial Number: USB2E2917
Spectrometer Channel: Master
Integration Time (msec): 3
Spectra Averaged: 10
Boxcar Smoothing: 5
Correct for Electrical Dark: Enabled
Time Normalized: Disabled
Dual-beam Reference: Disabled
Reference Channel: Master
Temperature: Not acquired
Spectrometer Type: S2000
ADC Type: USB2000
Number of Pixels in File: 2048
Graph Title: 
>>>>>Begin Spectral Data<<<<<
180.30	0.000
180.67	0.000
181.03	309.713
181.40	50.305
181.77	-318.935
182.14	426.887
182.51	-258.706
182.88	-121.440
183.25	124.269
183.62	-347.096
183.99	104.648
184.36	43.342
184.73	-22.765
185.10	-31.572
185.46	42.084
185.83	92.378
186.20	0.182
186.57	175.466
186.94	-2491.181
187.31	-51.205
187.68	-0.278
188.05	-21.263
188.42	-138.984
188.78	-686.112
189.15	-295.636
189.52	-360.217
189.89	-195.935
190.26	-225.145
190.63	-265.754
191.00	-294.698
191.37	-383.720
191.73	-396.840
192.10	-548.683
192.47	-1074.239
192.84	-327.765
193.21	-25243.821
193.58	652.826
193.94	357.212
194.31	393.977
194.68	434.286
195.05	788.950
195.42	1238.634
195.79	546.429
196.15	279.459
196.52	363.438
196.89	401.922
197.26	4783.071
197.63	-421.466
198.00	-188.557
198.36	-305.231
198.73	-257.182
199.10	-161.537
199.47	-271.509
199.84	-222.214
200.20	-109.854
200.57	-75.921
200.94	-89.490
201.31	-110.024
201.68	-80.914
202.04	-67.590
202.41	-95.876
202.78	-113.186
203.15	-216.648
203.51	-234.138
203.88	-241.100
204.25	-286.420
204.62	-400.060
204.98	-268.711
205.35	-140.271
205.72	-115.091
206.09	-349.818
206.46	-112.069
206.82	-119.501
207.19	-56.551
207.56	-32.395
207.92	-33.313
208.29	-17.136
208.66	-13.843
209.03	0.242
209.39	-30.815
209.76	-54.485
210.13	-40.273
210.50	-51.942
210.86	-15.244
211.23	-16.628
211.60	-23.087
211.96	-10.720
212.33	-4.530
212.70	-22.184
213.07	-52.581
213.43	-32.954
213.80	-26.414
214.17	-32.693
214.53	-22.666
214.90	-28.745
215.27	-56.386
215.63	-60.055
216.00	-61.624
216.37	-57.615
216.74	-63.467
217.10	-39.769
217.47	-35.384
217.84	-28.524
218.20	-21.474
218.57	-27.758
218.94	-23.210
219.30	-15.141
219.67	-1.490
220.04	-11.375
220.40	-13.759
220.77	-1.370
221.13	-8.573
221.50	1.982
221.87	4.303
222.23	1.511
222.60	4.978
222.97	-6.403
223.33	-10.188
223.70	-13.792
224.07	-7.194
224.43	-8.128
224.80	-8.470
225.16	-6.860
225.53	-7.486
225.90	-6.282
226.26	-6.203
226.63	-5.095
226.99	-4.218
227.36	-3.484
227.73	-3.577
228.09	-2.342
228.46	-2.190
228.82	-1.738
229.19	-1.585
229.56	-1.919
229.92	-3.454
230.29	-2.984
230.65	-3.916
231.02	-2.800
231.38	-1.928
231.75	-2.446
232.12	-3.763
232.48	-2.509
232.85	-3.137
233.21	-2.622
233.58	-2.871
233.94	-1.667
234.31	-0.965
234.68	0.969
235.04	-0.468
235.41	-0.572
235.77	0.067
236.14	0.732
236.50	-0.411
236.87	0.153
237.23	0.171
237.60	0.131
237.96	-0.258
238.33	-1.052
238.69	-1.752
239.06	-1.629
239.42	-1.440
239.79	-1.621
240.15	-1.697
240.52	-1.494
240.88	-1.548
241.25	-1.677
241.61	-0.968
241.98	-0.472
242.34	-0.299
242.71	-0.250
243.07	0.220
243.44	0.255
243.80	0.494
244.17	0.371
244.53	0.216
244.90	0.327
245.26	0.278
245.63	0.046
245.99	0.170
246.36	0.290
246.72	0.233
247.09	-0.260
247.45	-0.395
247.81	-0.375
248.18	-0.207
248.54	-0.210
248.91	-0.313
249.27	-0.079
249.64	-0.240
250.00	-0.666
250.36	-0.742
250.73	-0.734
251.09	-0.023
251.46	0.226
251.82	0.088
252.19	-0.176
252.55	-0.050
252.91	-0.015
253.28	-0.377
253.64	-0.216
254.01	-0.403
254.37	-0.509
254.73	-0.498
255.10	-0.544
255.46	-0.161
255.83	0.079
256.19	0.255
256.55	0.381
256.92	0.169
257.28	0.267
257.65	0.429
258.01	0.653
258.37	0.733
258.74	0.705
259.10	0.485
259.46	0.465
259.83	0.413
260.19	0.353
260.55	0.114
260.92	-0.084
261.28	-0.108
261.64	-0.425
262.01	-0.802
262.37	-0.707
262.73	-0.675
263.10	-0.471
263.46	-0.767
263.82	-0.650
264.19	-0.391
264.55	-0.376
264.91	0.325
265.28	0.627
265.64	0.839
266.00	1.109
266.37	1.030
266.73	1.166
267.09	1.140
267.46	1.219
267.82	0.845
268.18	0.570
268.54	0.891
268.91	0.768
269.27	0.374
269.63	0.504
270.00	0.210
270.36	0.062
270.72	0.159
271.08	0.253
271.45	0.168
271.81	0.128
272.17	0.213
272.53	0.186
272.90	0.216
273.26	0.190
273.62	-0.025
273.98	0.065
274.35	-0.087
274.71	-0.308
275.07	-0.306
275.43	-0.252
275.80	0.128
276.16	0.212
276.52	0.102
276.88	0.109
277.25	0.089
277.61	0.410
277.97	0.744
278.33	0.934
278.69	0.843
279.06	0.717
279.42	0.662
279.78	0.436
280.14	0.177
280.50	0.210
280.87	0.031
281.23	0.270
281.59	0.119
281.95	0.187
282.31	0.197
282.68	0.350
283.04	0.574
283.40	0.719
283.76	0.944
284.12	1.170
284.48	1.197
284.85	1.360
285.21	1.158
285.57	1.080
285.93	0.917
286.29	0.938
286.65	0.997
287.02	0.894
287.38	0.915
287.74	0.796
288.10	0.733
288.46	0.754
288.82	0.714
289.18	0.840
289.54	0.976
289.91	0.922
290.27	0.893
290.63	0.735
290.99	0.722
291.35	0.554
291.71	0.551
292.07	0.656
292.43	0.670
292.79	0.501
293.16	0.440
293.52	0.510
293.88	0.506
294.24	0.519
294.60	0.614
294.96	0.673
295.32	0.818
295.68	0.888
296.04	0.815
296.40	0.777
296.76	0.818
297.12	0.854
297.49	0.762
297.85	0.826
298.21	0.776
298.57	0.957
298.93	1.118
299.29	1.097
299.65	1.162
300.01	1.070
300.37	0.973
300.73	1.213
301.09	1.130
301.45	1.176
301.81	1.227
302.17	1.270
302.53	1.117
302.89	1.145
303.25	1.246
303.61	1.263
303.97	1.551
304.33	1.691
304.69	1.585
305.05	1.752
305.41	1.836
305.77	1.787
306.13	1.887
306.49	1.870
306.85	1.708
307.21	1.684
307.57	1.765
307.93	1.706
308.29	1.773
308.65	1.850
309.01	1.851
309.37	1.871
309.73	1.919
310.09	2.029
310.45	2.174
310.81	2.208
311.17	2.149
311.53	2.072
311.89	2.151
312.25	2.191
312.61	2.180
312.96	2.278
313.32	2.245
313.68	2.279
314.04	2.156
314.40	2.080
314.76	2.149
315.12	2.261
315.48	2.314
315.84	2.162
316.20	2.158
316.56	2.085
316.92	2.066
317.27	2.014
317.63	2.074
317.99	2.035
318.35	1.902
318.71	1.870
319.07	1.839
319.43	1.790
319.79	1.921
320.15	1.896
320.50	2.031
320.86	2.042
321.22	2.156
321.58	2.088
321.94	2.201
322.30	2.297
322.66	2.309
323.01	2.312
323.37	2.294
323.73	2.155
324.09	2.182
324.45	2.027
324.81	2.034
325.17	1.944
325.52	1.976
325.88	2.007
326.24	1.932
326.60	1.961
326.96	1.891
327.31	1.897
327.67	1.969
328.03	1.881
328.39	1.964
328.75	1.949
329.11	1.985
329.46	1.842
329.82	1.657
330.18	1.651
330.54	1.534
330.90	1.519
331.25	1.493
331.61	1.486
331.97	1.507
332.33	1.540
332.68	1.506
333.04	1.483
333.40	1.656
333.76	1.670
334.11	1.635
334.47	1.684
334.83	1.760
335.19	1.747
335.54	1.689
335.90	1.728
336.26	1.794
336.62	1.832
336.97	1.760
337.33	1.747
337.69	1.912
338.05	2.037
338.40	1.978
338.76	2.018
339.12	2.039
339.48	2.112
339.83	2.095
340.19	1.947
340.55	1.847
340.90	2.070
341.26	2.094
341.62	1.926
341.97	1.892
342.33	1.974
342.69	1.863
343.04	1.873
343.40	1.877
343.76	1.908
344.12	1.882
344.47	1.971
344.83	1.878
345.19	1.747
345.54	1.802
345.90	1.758
346.26	1.748
346.61	1.767
346.97	1.783
347.32	1.771
347.68	1.745
348.04	1.810
348.39	1.725
348.75	1.605
349.11	1.614
349.46	1.554
349.82	1.487
350.18	1.448
350.53	1.447
350.89	1.408
351.24	1.373
351.60	1.337
351.96	1.225
352.31	1.232
352.67	1.299
353.02	1.314
353.38	1.346
353.74	1.471
354.09	1.471
354.45	1.406
354.80	1.413
355.16	1.471
355.52	1.447
355.87	1.423
356.23	1.374
356.58	1.324
356.94	1.356
357.29	1.399
357.65	1.248
358.00	1.244
358.36	1.299
358.72	1.271
359.07	1.232
359.43	1.185
359.78	1.283
360.14	1.310
360.49	1.303
360.85	1.244
361.20	1.237
361.56	1.288
361.91	1.261
362.27	1.270
362.62	1.292
362.98	1.268
363.33	1.319
363.69	1.281
364.04	1.277
364.40	1.257
364.75	1.320
365.11	1.309
365.46	1.351
365.82	1.389
366.17	1.382
366.53	1.306
366.88	1.255
367.24	1.203
367.59	1.216
367.95	1.145
368.30	1.217
368.66	1.149
369.01	1.090
369.37	1.059
369.72	0.978
370.08	0.929
370.43	0.962
370.78	0.971
371.14	0.991
371.49	0.956
371.85	1.081
372.20	1.038
372.56	1.059
372.91	1.064
373.26	1.096
373.62	1.184
373.97	1.221
374.33	1.254
374.68	1.269
375.03	1.261
375.39	1.257
375.74	1.160
376.10	1.115
376.45	1.104
376.80	1.088
377.16	1.076
377.51	1.010
377.87	1.020
378.22	1.003
378.57	0.986
378.93	1.024
379.28	1.018
379.63	1.032
379.99	1.037
380.34	1.018
380.70	1.036
381.05	1.008
381.40	1.007
381.76	0.963
382.11	0.936
382.46	0.977
382.82	0.945
383.17	0.989
383.52	1.038
383.88	1.050
384.23	1.045
384.58	1.003
384.94	1.006
385.29	1.015
385.64	1.020
385.99	1.048
386.35	0.987
386.70	0.952
387.05	0.932
387.41	0.893
387.76	0.913
388.11	0.921
388.47	0.960
388.82	0.939
389.17	0.921
389.52	0.910
389.88	0.892
390.23	0.946
390.58	0.946
390.93	0.960
391.29	0.967
391.64	0.967
391.99	0.993
392.34	1.004
392.70	1.008
393.05	1.021
393.40	1.023
393.75	1.034
394.11	1.040
394.46	1.049
394.81	1.023
395.16	0.969
395.52	0.916
395.87	0.862
396.22	0.809
396.57	0.793
396.92	0.779
397.28	0.752
397.63	0.736
397.98	0.669
398.33	0.642
398.68	0.640
399.04	0.675
399.39	0.713
399.74	0.688
400.09	0.679
400.44	0.666
400.80	0.625
401.15	0.622
401.50	0.626
401.85	0.645
402.20	0.659
402.55	0.663
402.90	0.656
403.26	0.631
403.61	0.674
403.96	0.673
404.31	0.680
404.66	0.679
405.01	0.692
405.36	0.653
405.72	0.637
406.07	0.625
406.42	0.573
406.77	0.566
407.12	0.570
407.47	0.541
407.82	0.561
408.17	0.550
408.53	0.573
408.88	0.583
409.23	0.572
409.58	0.587
409.93	0.602
410.28	0.610
410.63	0.584
410.98	0.569
411.33	0.589
411.68	0.581
412.03	0.574
412.38	0.581
412.73	0.541
413.09	0.539
413.44	0.531
413.79	0.549
414.14	0.608
414.49	0.623
414.84	0.667
415.19	0.674
415.54	0.674
415.89	0.702
416.24	0.713
416.59	0.758
416.94	0.784
417.29	0.791
417.64	0.780
417.99	0.761
418.34	0.779
418.69	0.783
419.04	0.789
419.39	0.807
419.74	0.806
420.09	0.803
420.44	0.793
420.79	0.792
421.14	0.805
421.49	0.804
421.84	0.814
422.19	0.813
422.54	0.800
422.89	0.775
423.24	0.767
423.59	0.756
423.94	0.754
424.29	0.733
424.64	0.728
424.99	0.678
425.34	0.667
425.68	0.634
426.03	0.594
426.38	0.585
426.73	0.599
427.08	0.565
427.43	0.578
427.78	0.578
428.13	0.593
428.48	0.585
428.83	0.613
429.18	0.627
429.53	0.630
429.87	0.660
430.22	0.669
430.57	0.662
430.92	0.688
431.27	0.682
431.62	0.666
431.97	0.667
432.32	0.690
432.67	0.690
433.01	0.684
433.36	0.685
433.71	0.664
434.06	0.649
434.41	0.638
434.76	0.605
435.11	0.586
435.45	0.616
435.80	0.620
436.15	0.612
436.50	0.619
436.85	0.619
437.20	0.615
437.54	0.623
437.89	0.626
438.24	0.630
438.59	0.645
438.94	0.643
439.29	0.630
439.63	0.628
439.98	0.613
440.33	0.597
440.68	0.590
441.03	0.580
441.37	0.577
441.72	0.574
442.07	0.576
442.42	0.584
442.76	0.590
443.11	0.598
443.46	0.602
443.81	0.616
444.16	0.635
444.50	0.647
444.85	0.643
445.20	0.632
445.55	0.617
445.89	0.620
446.24	0.592
446.59	0.589
446.94	0.572
447.28	0.544
447.63	0.511
447.98	0.472
448.32	0.437
448.67	0.442
449.02	0.435
449.37	0.416
449.71	0.400
450.06	0.413
450.41	0.409
450.75	0.391
451.10	0.391
451.45	0.388
451.79	0.375
452.14	0.375
452.49	0.374
452.84	0.377
453.18	0.386
453.53	0.406
453.88	0.400
454.22	0.394
454.57	0.423
454.92	0.437
455.26	0.467
455.61	0.506
455.95	0.520
456.30	0.549
456.65	0.577
456.99	0.598
457.34	0.592
457.69	0.604
458.03	0.614
458.38	0.602
458.73	0.600
459.07	0.588
459.42	0.566
459.76	0.563
460.11	0.525
460.46	0.484
460.80	0.476
461.15	0.471
461.49	0.449
461.84	0.426
462.19	0.410
462.53	0.391
462.88	0.382
463.22	0.380
463.57	0.366
463.91	0.377
464.26	0.374
464.61	0.357
464.95	0.350
465.30	0.347
465.64	0.347
465.99	0.362
466.33	0.355
466.68	0.344
467.02	0.330
467.37	0.332
467.71	0.316
468.06	0.323
468.41	0.306
468.75	0.283
469.10	0.281
469.44	0.285
469.79	0.251
470.13	0.242
470.48	0.233
470.82	0.233
471.17	0.227
471.51	0.223
471.86	0.208
472.20	0.203
472.55	0.202
472.89	0.192
473.23	0.178
473.58	0.185
473.92	0.188
474.27	0.189
474.61	0.184
474.96	0.160
475.30	0.156
475.65	0.162
475.99	0.163
476.34	0.152
476.68	0.151
477.02	0.154
477.37	0.169
477.71	0.188
478.06	0.207
478.40	0.251
478.75	0.318
479.09	0.374
479.43	0.425
479.78	0.483
480.12	0.536
480.47	0.578
480.81	0.610
481.15	0.642
481.50	0.668
481.84	0.702
482.19	0.727
482.53	0.741
482.87	0.745
483.22	0.744
483.56	0.741
483.90	0.739
484.25	0.730
484.59	0.726
484.94	0.708
485.28	0.694
485.62	0.665
485.97	0.639
486.31	0.624
486.65	0.611
487.00	0.600
487.34	0.585
487.68	0.565
488.03	0.555
488.37	0.536
488.71	0.524
489.06	0.516
489.40	0.508
489.74	0.497
490.09	0.478
490.43	0.452
490.77	0.432
491.11	0.409
491.46	0.380
491.80	0.346
492.14	0.312
492.49	0.283
492.83	0.241
493.17	0.204
493.51	0.152
493.86	0.123
494.20	0.104
494.54	0.075
494.88	0.072
495.23	0.075
495.57	0.070
495.91	0.077
496.25	0.070
496.60	0.071
496.94	0.060
497.28	0.073
497.62	0.054
497.97	0.044
498.31	0.057
498.65	0.034
498.99	0.006
499.33	0.020
499.68	0.012
500.02	0.008
500.36	-0.006
500.70	-0.001
501.04	-0.010
501.39	-0.020
501.73	-0.019
502.07	-0.036
502.41	-0.050
502.75	-0.033
503.09	-0.053
503.44	-0.055
503.78	-0.047
504.12	-0.035
504.46	-0.022
504.80	-0.009
505.14	-0.013
505.49	-0.002
505.83	0.010
506.17	0.023
506.51	-0.002
506.85	-0.002
507.19	0.003
507.53	-0.002
507.87	-0.004
508.22	-0.017
508.56	-0.018
508.90	-0.014
509.24	-0.026
509.58	-0.041
509.92	-0.043
510.26	-0.034
510.60	-0.031
510.94	-0.039
511.28	-0.048
511.63	-0.065
511.97	-0.074
512.31	-0.084
512.65	-0.083
512.99	-0.090
513.33	-0.073
513.67	-0.069
514.01	-0.045
514.35	-0.032
514.69	-0.016
515.03	0.007
515.37	0.031
515.71	0.049
516.05	0.061
516.39	0.081
516.73	0.095
517.07	0.087
517.41	0.100
517.75	0.091
518.09	0.082
518.43	0.086
518.77	0.072
519.11	0.038
519.45	0.004
519.79	-0.028
520.13	-0.066
520.47	-0.094
520.81	-0.103
521.15	-0.121
521.49	-0.116
521.83	-0.115
522.17	-0.125
522.51	-0.096
522.85	-0.047
523.19	0.012
523.53	0.075
523.87	0.147
524.21	0.202
524.55	0.255
524.89	0.303
525.23	0.353
525.57	0.394
525.91	0.431
526.25	0.447
526.58	0.476
526.92	0.486
527.26	0.495
527.60	0.493
527.94	0.501
528.28	0.496
528.62	0.484
528.96	0.466
529.30	0.445
529.64	0.422
529.97	0.404
530.31	0.368
530.65	0.359
530.99	0.329
531.33	0.304
531.67	0.279
532.01	0.265
532.35	0.256
532.68	0.243
533.02	0.231
533.36	0.223
533.70	0.213
534.04	0.191
534.38	0.158
534.71	0.150
535.05	0.135
535.39	0.118
535.73	0.091
536.07	0.089
536.41	0.067
536.74	0.079
537.08	0.095
537.42	0.118
537.76	0.155
538.10	0.191
538.43	0.211
538.77	0.239
539.11	0.275
539.45	0.306
539.79	0.318
540.12	0.345
540.46	0.354
540.80	0.354
541.14	0.346
541.47	0.329
541.81	0.318
542.15	0.303
542.49	0.290
542.82	0.253
543.16	0.224
543.50	0.189
543.84	0.147
544.17	0.112
544.51	0.080
544.85	0.057
545.18	0.049
545.52	0.015
545.86	0.000
546.20	-0.037
546.53	-0.071
546.87	-0.118
547.21	-0.158
547.54	-0.188
547.88	-0.219
548.22	-0.240
548.55	-0.268
548.89	-0.289
549.23	-0.299
549.56	-0.325
549.90	-0.327
550.24	-0.316
550.57	-0.299
550.91	-0.286
551.25	-0.286
551.58	-0.270
551.92	-0.277
552.26	-0.276
552.59	-0.274
552.93	-0.279
553.27	-0.300
553.60	-0.299
553.94	-0.286
554.27	-0.290
554.61	-0.284
554.95	-0.295
555.28	-0.299
555.62	-0.311
555.95	-0.314
556.29	-0.329
556.63	-0.326
556.96	-0.306
557.30	-0.290
557.63	-0.303
557.97	-0.312
558.31	-0.318
558.64	-0.313
558.98	-0.329
559.31	-0.323
559.65	-0.314
559.98	-0.306
560.32	-0.306
560.65	-0.301
560.99	-0.318
561.33	-0.318
561.66	-0.296
562.00	-0.275
562.33	-0.231
562.67	-0.212
563.00	-0.185
563.34	-0.144
563.67	-0.131
564.01	-0.113
564.34	-0.089
564.68	-0.058
565.01	-0.036
565.35	-0.034
565.68	-0.020
566.02	-0.009
566.35	0.004
566.69	0.004
567.02	-0.008
567.36	-0.006
567.69	0.008
568.03	-0.005
568.36	-0.012
568.69	-0.011
569.03	0.009
569.36	0.017
569.70	0.023
570.03	0.038
570.37	0.065
570.70	0.065
571.04	0.072
571.37	0.061
571.70	0.086
572.04	0.083
572.37	0.096
572.71	0.100
573.04	0.096
573.37	0.084
573.71	0.070
574.04	0.066
574.38	0.056
574.71	0.046
575.04	0.016
575.38	-0.010
575.71	-0.015
576.05	-0.029
576.38	-0.059
576.71	-0.088
577.05	-0.128
577.38	-0.134
577.71	-0.169
578.05	-0.183
578.38	-0.202
578.71	-0.170
579.05	-0.172
579.38	-0.182
579.71	-0.209
580.05	-0.226
580.38	-0.218
580.71	-0.216
581.05	-0.242
581.38	-0.229
581.71	-0.230
582.05	-0.205
582.38	-0.195
582.71	-0.226
583.04	-0.214
583.38	-0.200
583.71	-0.176
584.04	-0.185
584.38	-0.149
584.71	-0.120
585.04	-0.101
585.37	-0.070
585.71	-0.042
586.04	-0.005
586.37	0.038
586.70	0.067
587.04	0.092
587.37	0.108
587.70	0.128
588.03	0.149
588.37	0.169
588.70	0.169
589.03	0.158
589.36	0.129
589.69	0.101
590.03	0.095
590.36	0.083
590.69	0.086
591.02	0.092
591.35	0.105
591.69	0.113
592.02	0.113
592.35	0.138
592.68	0.147
593.01	0.171
593.35	0.193
593.68	0.217
594.01	0.234
594.34	0.234
594.67	0.239
595.00	0.240
595.34	0.205
595.67	0.194
596.00	0.146
596.33	0.142
596.66	0.114
596.99	0.091
597.32	0.061
597.65	0.022
597.99	0.004
598.32	-0.009
598.65	-0.014
598.98	0.015
599.31	0.028
599.64	0.061
599.97	0.076
600.30	0.114
600.63	0.146
600.96	0.190
601.30	0.216
601.63	0.223
601.96	0.239
602.29	0.265
602.62	0.266
602.95	0.274
603.28	0.289
603.61	0.301
603.94	0.287
604.27	0.257
604.60	0.231
604.93	0.234
605.26	0.240
605.59	0.233
605.92	0.199
606.25	0.194
606.58	0.190
606.91	0.176
607.24	0.158
607.57	0.186
607.90	0.204
608.23	0.209
608.56	0.202
608.89	0.169
609.22	0.151
609.55	0.128
609.88	0.091
610.21	0.062
610.54	0.028
610.87	-0.001
611.20	-0.029
611.53	-0.028
611.86	-0.039
612.19	-0.058
612.52	-0.024
612.85	-0.015
613.18	-0.023
613.51	0.013
613.84	0.022
614.17	0.004
614.49	0.005
614.82	-0.021
615.15	-0.056
615.48	-0.067
615.81	-0.040
616.14	-0.074
616.47	-0.105
616.80	-0.076
617.13	-0.069
617.46	-0.102
617.78	-0.056
618.11	-0.064
618.44	-0.070
618.77	-0.057
619.10	-0.042
619.43	-0.099
619.76	-0.089
620.09	-0.072
620.41	-0.088
620.74	-0.141
621.07	-0.085
621.40	-0.115
621.73	-0.095
622.06	-0.051
622.38	-0.046
622.71	-0.020
623.04	0.036
623.37	0.076
623.70	0.093
624.02	0.109
624.35	0.171
624.68	0.201
625.01	0.240
625.34	0.272
625.66	0.259
625.99	0.250
626.32	0.238
626.65	0.225
626.98	0.187
627.30	0.172
627.63	0.176
627.96	0.130
628.29	0.106
628.61	0.091
628.94	0.075
629.27	0.076
629.60	0.085
629.92	0.067
630.25	0.090
630.58	0.115
630.91	0.122
631.23	0.108
631.56	0.094
631.89	0.047
632.21	0.025
632.54	-0.012
632.87	-0.045
633.19	-0.067
633.52	-0.064
633.85	-0.102
634.18	-0.132
634.50	-0.147
634.83	-0.132
635.16	-0.108
635.48	-0.114
635.81	-0.113
636.14	-0.087
636.46	-0.087
636.79	-0.096
637.11	-0.125
637.44	-0.159
637.77	-0.178
638.09	-0.177
638.42	-0.221
638.75	-0.239
639.07	-0.237
639.40	-0.260
639.73	-0.289
640.05	-0.298
640.38	-0.337
640.70	-0.333
641.03	-0.308
641.36	-0.314
641.68	-0.303
642.01	-0.237
642.33	-0.220
642.66	-0.220
642.98	-0.175
643.31	-0.169
643.64	-0.142
643.96	-0.072
644.29	-0.085
644.61	-0.082
644.94	-0.048
645.26	-0.098
645.59	-0.159
645.91	-0.136
646.24	-0.091
646.56	-0.092
646.89	-0.077
647.22	-0.061
647.54	-0.062
647.87	-0.053
648.19	-0.038
648.52	0.005
648.84	0.028
649.17	0.068
649.49	0.038
649.82	0.019
650.14	-0.002
650.47	0.009
650.79	-0.061
651.11	-0.114
651.44	-0.094
651.76	-0.133
652.09	-0.170
652.41	-0.147
652.74	-0.180
653.06	-0.141
653.39	-0.195
653.71	-0.207
654.04	-0.258
654.36	-0.189
654.68	-0.122
655.01	-0.075
655.33	-0.038
655.66	-0.054
655.98	-0.060
656.30	-0.027
656.63	-0.020
656.95	0.056
657.28	0.101
657.60	0.182
657.92	0.151
658.25	0.127
658.57	0.102
658.90	0.071
659.22	0.042
659.54	-0.003
659.87	-0.054
660.19	-0.097
660.51	-0.180
660.84	-0.237
661.16	-0.311
661.48	-0.338
661.81	-0.324
662.13	-0.416
662.45	-0.375
662.78	-0.361
663.10	-0.337
663.42	-0.345
663.75	-0.356
664.07	-0.315
664.39	-0.268
664.72	-0.246
665.04	-0.235
665.36	-0.280
665.69	-0.199
666.01	-0.231
666.33	-0.242
666.65	-0.200
666.98	-0.206
667.30	-0.213
667.62	-0.233
667.94	-0.238
668.27	-0.277
668.59	-0.287
668.91	-0.282
669.23	-0.317
669.56	-0.308
669.88	-0.290
670.20	-0.345
670.52	-0.341
670.85	-0.332
671.17	-0.297
671.49	-0.356
671.81	-0.382
672.13	-0.333
672.46	-0.330
672.78	-0.364
673.10	-0.423
673.42	-0.420
673.74	-0.378
674.07	-0.308
674.39	-0.348
674.71	-0.362
675.03	-0.312
675.35	-0.163
675.67	-0.228
676.00	-0.259
676.32	-0.184
676.64	-0.125
676.96	-0.084
677.28	-0.063
677.60	-0.066
677.92	0.010
678.25	0.042
678.57	-0.003
678.89	-0.067
679.21	-0.056
679.53	-0.035
679.85	-0.120
680.17	-0.120
680.49	-0.147
680.81	-0.186
681.13	-0.190
681.46	-0.230
681.78	-0.225
682.10	-0.147
682.42	-0.117
682.74	-0.046
683.06	-0.045
683.38	0.018
683.70	0.047
684.02	0.091
684.34	0.132
684.66	0.193
684.98	0.221
685.30	0.177
685.62	0.142
685.94	0.140
686.26	0.128
686.58	0.147
686.90	0.152
687.22	0.160
687.54	0.073
687.86	0.054
688.18	0.059
688.50	0.031
688.82	-0.003
689.14	0.062
689.46	0.055
689.78	0.020
690.10	0.047
690.42	0.037
690.74	-0.004
691.06	0.083
691.38	0.059
691.70	-0.079
692.02	-0.095
692.34	-0.060
692.66	-0.146
692.98	-0.198
693.30	-0.101
693.62	-0.117
693.94	-0.026
694.26	0.001
694.57	-0.012
694.89	0.045
695.21	0.103
695.53	0.154
695.85	0.207
696.17	0.190
696.49	0.247
696.81	0.153
697.13	0.191
697.44	0.175
697.76	0.148
698.08	0.188
698.40	0.135
698.72	0.152
699.04	0.091
699.36	0.060
699.67	0.104
699.99	0.014
700.31	0.030
700.63	-0.006
700.95	-0.066
701.27	-0.074
701.58	-0.128
701.90	-0.097
702.22	-0.153
702.54	-0.132
702.86	-0.201
703.17	-0.258
703.49	-0.231
703.81	-0.197
704.13	-0.265
704.45	-0.325
704.76	-0.293
705.08	-0.343
705.40	-0.355
705.72	-0.383
706.03	-0.388
706.35	-0.347
706.67	-0.380
706.99	-0.471
707.30	-0.544
707.62	-0.468
707.94	-0.393
708.26	-0.420
708.57	-0.482
708.89	-0.485
709.21	-0.397
709.53	-0.437
709.84	-0.419
710.16	-0.348
710.48	-0.309
710.79	-0.265
711.11	-0.370
711.43	-0.342
711.74	-0.333
712.06	-0.171
712.38	-0.104
712.69	-0.149
713.01	-0.043
713.33	0.048
713.64	0.062
713.96	0.176
714.28	0.228
714.59	0.394
714.91	0.410
715.23	0.523
715.54	0.522
715.86	0.496
716.17	0.593
716.49	0.554
716.81	0.416
717.12	0.456
717.44	0.487
717.76	0.554
718.07	0.532
718.39	0.483
718.70	0.338
719.02	0.261
719.33	0.288
719.65	0.153
719.97	0.092
720.28	0.172
720.60	0.055
720.91	-0.075
721.23	-0.067
721.54	-0.059
721.86	-0.012
722.17	0.098
722.49	0.056
722.81	0.114
723.12	0.218
723.44	0.359
723.75	0.233
724.07	0.312
724.38	0.324
724.70	0.193
725.01	0.124
725.33	0.013
725.64	-0.011
725.96	-0.030
726.27	-0.185
726.59	-0.282
726.90	-0.267
727.22	-0.200
727.53	-0.156
727.84	-0.024
728.16	-0.026
728.47	-0.039
728.79	-0.052
729.10	-0.049
729.42	0.091
729.73	0.134
730.05	0.147
730.36	0.053
730.67	0.137
730.99	0.017
731.30	-0.166
731.62	-0.165
731.93	-0.111
732.24	0.018
732.56	0.081
732.87	-0.080
733.19	-0.118
733.50	-0.134
733.81	-0.128
734.13	-0.103
734.44	-0.012
734.76	0.081
735.07	0.121
735.38	-0.084
735.70	-0.149
736.01	-0.242
736.32	-0.189
736.64	-0.200
736.95	-0.229
737.26	-0.342
737.58	-0.592
737.89	-0.650
738.20	-0.656
738.52	-0.647
738.83	-0.457
739.14	-0.513
739.45	-0.590
739.77	-0.678
740.08	-0.759
740.39	-0.818
740.71	-0.695
741.02	-0.681
741.33	-0.916
741.64	-1.143
741.96	-1.336
742.27	-1.574
742.58	-1.659
742.90	-1.779
743.21	-1.751
743.52	-1.470
743.83	-1.416
744.14	-1.587
744.46	-1.629
744.77	-1.508
745.08	-1.510
745.39	-1.442
745.71	-1.347
746.02	-1.408
746.33	-1.415
746.64	-1.541
746.95	-1.749
747.27	-1.786
747.58	-1.666
747.89	-1.710
748.20	-1.645
748.51	-1.561
748.82	-1.612
749.14	-1.816
749.45	-1.864
749.76	-1.956
750.07	-2.160
750.38	-2.195
750.69	-2.167
751.01	-2.178
751.32	-2.165
751.63	-2.203
751.94	-2.263
752.25	-2.231
752.56	-2.090
752.87	-2.085
753.18	-2.051
753.49	-1.776
753.81	-1.740
754.12	-1.650
754.43	-1.736
754.74	-1.744
755.05	-1.607
755.36	-1.462
755.67	-1.408
755.98	-1.260
756.29	-0.987
756.60	-0.652
756.91	-0.405
757.22	-0.262
757.53	-0.301
757.84	0.084
758.15	0.555
758.46	0.713
758.77	0.834
759.09	0.950
759.40	0.898
759.71	1.046
760.02	1.009
760.33	1.023
760.64	1.052
760.95	1.300
761.26	1.075
761.57	0.783
761.88	0.784
762.18	0.723
762.49	0.770
762.80	0.890
763.11	0.741
763.42	0.719
763.73	0.557
764.04	0.401
764.35	0.192
764.66	0.155
764.97	0.116
765.28	-0.178
765.59	-0.359
765.90	-0.653
766.21	-0.956
766.52	-0.973
766.83	-1.237
767.14	-1.483
767.44	-1.702
767.75	-2.037
768.06	-2.114
768.37	-2.340
768.68	-2.468
768.99	-2.666
769.30	-2.697
769.61	-2.568
769.91	-2.916
770.22	-3.036
770.53	-2.895
770.84	-2.687
771.15	-2.662
771.46	-2.760
771.77	-2.840
772.07	-2.751
772.38	-2.587
772.69	-2.787
773.00	-2.739
773.31	-2.516
773.61	-2.413
773.92	-2.568
774.23	-2.730
774.54	-2.797
774.85	-2.994
775.15	-2.597
775.46	-2.592
775.77	-2.614
776.08	-2.496
776.39	-2.674
776.69	-3.114
777.00	-3.130
777.31	-3.074
777.62	-2.810
777.92	-2.847
778.23	-2.600
778.54	-2.889
778.85	-3.203
779.15	-3.169
779.46	-3.234
779.77	-3.369
780.07	-3.017
780.38	-3.173
780.69	-2.851
781.00	-3.015
781.30	-2.833
781.61	-2.867
781.92	-2.720
782.22	-2.480
782.53	-2.617
782.84	-2.526
783.14	-2.498
783.45	-2.367
783.76	-2.138
784.06	-2.244
784.37	-2.166
784.68	-2.140
784.98	-2.370
785.29	-2.467
785.60	-2.655
785.90	-2.367
786.21	-2.286
786.51	-2.235
786.82	-2.356
787.13	-2.385
787.43	-2.295
787.74	-2.201
788.04	-2.398
788.35	-2.073
788.66	-2.067
788.96	-1.942
789.27	-2.001
789.57	-2.221
789.88	-2.089
790.19	-2.324
790.49	-2.473
790.80	-2.690
791.10	-3.046
791.41	-2.876
791.71	-2.912
792.02	-2.985
792.32	-3.077
792.63	-3.147
792.93	-2.693
793.24	-3.029
793.54	-2.745
793.85	-2.681
794.15	-2.973
794.46	-2.845
794.76	-2.755
795.07	-2.818
795.37	-2.749
795.68	-2.405
795.98	-2.410
796.29	-2.354
796.59	-1.888
796.90	-1.694
797.20	-1.437
797.51	-0.904
797.81	-0.824
798.12	-0.856
798.42	-1.098
798.72	-1.265
799.03	-1.272
799.33	-1.477
799.64	-1.982
799.94	-2.121
800.25	-2.249
800.55	-2.515
800.85	-2.856
801.16	-2.871
801.46	-3.165
801.77	-3.002
802.07	-2.763
802.37	-2.808
802.68	-2.676
802.98	-2.680
803.28	-2.697
803.59	-2.424
803.89	-2.362
804.20	-2.290
804.50	-2.591
804.80	-2.298
805.11	-1.983
805.41	-1.953
805.71	-1.979
806.02	-1.720
806.32	-1.584
806.62	-1.681
806.93	-2.242
807.23	-2.321
807.53	-2.337
807.83	-1.762
808.14	-1.599
808.44	-1.724
808.74	-1.283
809.05	-1.261
809.35	-1.383
809.65	-1.010
809.95	-0.787
810.26	-0.703
810.56	-0.133
810.86	-0.267
811.16	-0.752
811.47	-0.515
811.77	-0.323
812.07	0.040
812.37	0.112
812.68	0.497
812.98	0.490
813.28	-0.002
813.58	-0.097
813.88	-0.527
814.19	-0.180
814.49	0.412
814.79	0.091
815.09	-0.124
815.39	-0.334
815.70	-0.100
816.00	0.046
816.30	0.127
816.60	0.477
816.90	1.020
817.20	1.325
817.50	1.249
817.81	1.117
818.11	1.229
818.41	1.189
818.71	1.226
819.01	1.310
819.31	1.382
819.61	1.372
819.92	1.480
820.22	1.483
820.52	1.463
820.82	1.519
821.12	1.583
821.42	1.643
821.72	1.738
822.02	1.689
822.32	1.752
822.62	1.724
822.92	1.741
823.22	1.699
823.52	1.745
823.83	1.738
824.13	1.740
824.43	1.783
824.73	1.748
825.03	1.610
825.33	1.752
825.63	1.526
825.93	1.433
826.23	1.429
826.53	1.434
826.83	1.233
827.13	1.261
827.43	1.302
827.73	1.197
828.03	1.048
828.33	1.020
828.63	0.691
828.93	0.622
829.23	0.396
829.53	0.221
829.83	0.067
830.13	0.155
830.42	-0.075
830.72	-0.348
831.02	-0.510
831.32	-0.424
831.62	-0.132
831.92	0.225
832.22	0.383
832.52	0.678
832.82	0.812
833.12	0.861
833.42	0.864
833.72	1.094
834.01	1.173
834.31	0.840
834.61	0.922
834.91	0.905
835.21	0.646
835.51	0.644
835.81	0.102
836.11	-0.260
836.40	-0.594
836.70	-0.987
837.00	-1.609
837.30	-1.904
837.60	-1.292
837.90	-1.553
838.19	-1.839
838.49	-1.378
838.79	-1.089
839.09	-0.406
839.39	-0.941
839.68	-0.799
839.98	-0.238
840.28	0.336
840.58	0.623
840.88	0.269
841.17	0.139
841.47	-0.465
841.77	-1.188
842.07	-2.355
842.36	-2.554
842.66	-1.375
842.96	-1.572
843.26	-2.466
843.55	-3.521
843.85	-4.083
844.15	-3.954
844.45	-4.800
844.74	-3.769
845.04	-4.828
845.34	-5.364
845.63	-6.926
845.93	-6.348
846.23	-7.019
846.53	-7.527
846.82	-5.898
847.12	-6.212
847.42	-6.006
847.71	-5.945
848.01	-6.840
848.31	-6.831
848.60	-5.320
848.90	-3.792
849.19	-4.833
849.49	-3.604
849.79	-3.953
850.08	-6.795
850.38	-5.937
850.68	-6.114
850.97	-5.683
851.27	-4.814
851.56	-3.144
851.86	-4.336
852.16	-5.941
852.45	-5.053
852.75	-5.150
853.04	-3.550
853.34	-2.367
853.64	-3.055
853.93	-2.731
854.23	-2.280
854.52	-1.633
854.82	-1.892
855.11	-1.508
855.41	0.728
855.70	-1.986
856.00	-3.193
856.30	-5.005
856.59	-6.740
856.89	-8.690
857.18	-9.136
857.48	-8.824
857.77	-8.722
858.07	-9.560
858.36	-9.455
858.66	-10.600
858.95	-9.039
859.25	-10.401
859.54	-9.301
859.84	-6.398
860.13	-3.942
860.42	-4.511
860.72	-5.189
861.01	-6.686
861.31	-8.219
861.60	-8.254
861.90	-7.770
862.19	-6.737
862.49	-5.250
862.78	-6.179
863.07	-6.748
863.37	-6.450
863.66	-5.817
863.96	-5.837
864.25	-4.390
864.54	-3.002
864.84	-1.259
865.13	-2.630
865.43	-1.994
865.72	3.975
866.01	-3.281
866.31	9.920
866.60	-14.412
866.89	15.482
>>>>>End Spectral Data<<<<<
