OOIBase32 Version 2.0.0.6 Data File
++++++++++++++++++++++++++++++++++++
Date: 01-23-2012, 22:08:22
User: Valued Ocean Optics Customer
Spectrometer Serial Number: USB2E2917
Spectrometer Channel: Master
Integration Time (msec): 5
Spectra Averaged: 10
Boxcar Smoothing: 5
Correct for Electrical Dark: Enabled
Time Normalized: Disabled
Dual-beam Reference: Disabled
Reference Channel: Master
Temperature: Not acquired
Spectrometer Type: S2000
ADC Type: USB2000
Number of Pixels in File: 2048
Graph Title: 
>>>>>Begin Spectral Data<<<<<
180.30	0.000
180.67	0.000
181.03	328.921
181.40	-303.812
181.77	17783.533
182.14	-91.607
182.51	42.703
182.88	8588.877
183.25	-185.458
183.62	127.354
183.99	1.665
184.36	-28.249
184.73	265.876
185.10	29.678
185.46	2.681
185.83	115.074
186.20	51.888
186.57	-495.680
186.94	63.569
187.31	171.251
187.68	-150.476
188.05	31.171
188.42	39.118
188.78	16.386
189.15	21.571
189.52	14.748
189.89	9.970
190.26	-11.857
190.63	-4.093
191.00	-15.651
191.37	-11.495
191.73	-11.829
192.10	-19.300
192.47	-28.329
192.84	-13.038
193.21	-20.746
193.58	-2.153
193.94	2.074
194.31	-7.378
194.68	-0.354
195.05	1.830
195.42	-7.122
195.79	-12.587
196.15	-1.599
196.52	5.331
196.89	-16.075
197.26	-4.621
197.63	-21.693
198.00	-28.859
198.36	-14.133
198.73	-21.896
199.10	-21.575
199.47	-16.234
199.84	-12.929
200.20	-3.225
200.57	-19.314
200.94	-6.337
201.31	-15.080
201.68	4.219
202.04	9.970
202.41	11.601
202.78	5.731
203.15	3.717
203.51	-11.090
203.88	-14.011
204.25	-30.305
204.62	-14.250
204.98	-12.257
205.35	-10.405
205.72	-19.512
206.09	-31.864
206.46	-31.597
206.82	-29.892
207.19	-29.174
207.56	-21.998
207.92	-36.322
208.29	-43.285
208.66	-53.845
209.03	-40.941
209.39	-60.830
209.76	-65.044
210.13	-68.721
210.50	-80.985
210.86	-79.841
211.23	-52.722
211.60	-38.849
211.96	-26.910
212.33	-29.659
212.70	-18.129
213.07	-33.382
213.43	-21.081
213.80	-16.938
214.17	-20.248
214.53	-11.433
214.90	-7.382
215.27	-18.695
215.63	-28.420
216.00	-27.289
216.37	-17.432
216.74	-32.492
217.10	-25.297
217.47	-33.977
217.84	-36.223
218.20	-19.165
218.57	-10.053
218.94	-13.007
219.30	-10.792
219.67	-13.237
220.04	-11.722
220.40	-11.976
220.77	-9.586
221.13	-19.978
221.50	-18.794
221.87	-14.169
222.23	-9.857
222.60	-11.236
222.97	-13.843
223.33	-19.124
223.70	-16.035
224.07	-11.720
224.43	-3.658
224.80	1.595
225.16	5.435
225.53	8.629
225.90	2.768
226.26	-1.729
226.63	-4.118
226.99	-0.832
227.36	1.903
227.73	0.813
228.09	-3.067
228.46	-6.106
228.82	-5.465
229.19	-7.319
229.56	-9.265
229.92	-4.975
230.29	-2.747
230.65	-1.122
231.02	-1.411
231.38	-2.641
231.75	-1.668
232.12	1.948
232.48	3.553
232.85	1.112
233.21	3.730
233.58	4.175
233.94	3.807
234.31	3.328
234.68	2.128
235.04	1.359
235.41	0.052
235.77	1.245
236.14	-0.042
236.50	-1.185
236.87	-0.038
237.23	-1.086
237.60	-0.915
237.96	-1.109
238.33	-0.082
238.69	0.114
239.06	-0.488
239.42	0.227
239.79	1.024
240.15	1.362
240.52	0.656
240.88	0.379
241.25	1.164
241.61	1.491
241.98	2.293
242.34	1.743
242.71	2.115
243.07	2.790
243.44	2.832
243.80	2.463
244.17	2.648
244.53	2.857
244.90	2.848
245.26	2.763
245.63	2.549
245.99	2.229
246.36	2.643
246.72	2.099
247.09	2.055
247.45	2.210
247.81	1.882
248.18	1.155
248.54	1.339
248.91	1.095
249.27	1.113
249.64	0.912
250.00	0.813
250.36	0.422
250.73	0.766
251.09	0.877
251.46	0.664
251.82	1.235
252.19	1.798
252.55	1.222
252.91	1.535
253.28	0.351
253.64	0.583
254.01	0.810
254.37	0.942
254.73	1.486
255.10	1.531
255.46	1.755
255.83	1.403
256.19	1.889
256.55	2.092
256.92	2.008
257.28	2.498
257.65	2.879
258.01	2.808
258.37	2.698
258.74	2.721
259.10	2.594
259.46	2.476
259.83	2.523
260.19	2.348
260.55	2.484
260.92	2.606
261.28	2.367
261.64	1.905
262.01	1.957
262.37	1.872
262.73	1.367
263.10	1.114
263.46	1.469
263.82	1.300
264.19	1.166
264.55	0.978
264.91	0.776
265.28	0.980
265.64	0.938
266.00	0.825
266.37	0.835
266.73	1.301
267.09	1.651
267.46	1.727
267.82	1.851
268.18	2.004
268.54	2.003
268.91	2.398
269.27	2.483
269.63	2.433
270.00	2.574
270.36	2.641
270.72	2.458
271.08	2.192
271.45	1.928
271.81	2.150
272.17	2.065
272.53	2.062
272.90	1.788
273.26	1.689
273.62	1.773
273.98	1.632
274.35	1.435
274.71	1.567
275.07	1.719
275.43	1.887
275.80	1.958
276.16	2.308
276.52	2.172
276.88	1.991
277.25	2.097
277.61	2.316
277.97	2.289
278.33	2.308
278.69	2.176
279.06	2.356
279.42	2.062
279.78	1.655
280.14	1.397
280.50	1.606
280.87	1.935
281.23	2.138
281.59	2.080
281.95	2.191
282.31	2.394
282.68	2.602
283.04	2.557
283.40	2.673
283.76	2.640
284.12	2.703
284.48	2.634
284.85	2.596
285.21	2.420
285.57	2.392
285.93	2.331
286.29	2.312
286.65	2.079
287.02	1.992
287.38	2.058
287.74	2.401
288.10	2.393
288.46	2.590
288.82	2.553
289.18	2.460
289.54	2.420
289.91	2.600
290.27	2.595
290.63	2.833
290.99	2.972
291.35	3.151
291.71	3.322
292.07	3.431
292.43	3.621
292.79	3.978
293.16	4.184
293.52	4.296
293.88	4.387
294.24	4.701
294.60	4.846
294.96	5.120
295.32	5.370
295.68	5.338
296.04	5.647
296.40	5.738
296.76	5.898
297.12	6.221
297.49	6.598
297.85	6.913
298.21	7.086
298.57	7.354
298.93	7.486
299.29	7.654
299.65	7.933
300.01	8.145
300.37	8.433
300.73	8.845
301.09	9.051
301.45	9.467
301.81	9.621
302.17	9.868
302.53	10.077
302.89	10.417
303.25	10.545
303.61	10.878
303.97	11.016
304.33	11.173
304.69	11.125
305.05	11.191
305.41	11.071
305.77	11.308
306.13	11.381
306.49	11.656
306.85	11.660
307.21	11.694
307.57	11.838
307.93	11.958
308.29	12.137
308.65	12.150
309.01	12.238
309.37	12.415
309.73	12.515
310.09	12.581
310.45	12.453
310.81	12.507
311.17	12.585
311.53	12.616
311.89	12.795
312.25	12.640
312.61	12.685
312.96	12.882
313.32	12.962
313.68	12.920
314.04	12.927
314.40	13.001
314.76	12.988
315.12	13.100
315.48	13.073
315.84	12.886
316.20	13.034
316.56	13.053
316.92	12.919
317.27	12.745
317.63	12.617
317.99	12.644
318.35	12.558
318.71	12.525
319.07	12.488
319.43	12.428
319.79	12.329
320.15	12.186
320.50	12.101
320.86	12.134
321.22	12.211
321.58	12.307
321.94	12.244
322.30	12.222
322.66	12.280
323.01	12.177
323.37	12.113
323.73	12.187
324.09	12.383
324.45	12.428
324.81	12.342
325.17	12.344
325.52	12.362
325.88	12.291
326.24	12.378
326.60	12.487
326.96	12.560
327.31	12.625
327.67	12.646
328.03	12.465
328.39	12.392
328.75	12.349
329.11	12.259
329.46	12.215
329.82	12.337
330.18	12.394
330.54	12.262
330.90	12.326
331.25	12.273
331.61	12.146
331.97	12.185
332.33	12.272
332.68	12.257
333.04	12.214
333.40	12.185
333.76	12.089
334.11	11.826
334.47	11.757
334.83	11.653
335.19	11.738
335.54	11.788
335.90	11.764
336.26	11.698
336.62	11.734
336.97	11.620
337.33	11.632
337.69	11.558
338.05	11.662
338.40	11.675
338.76	11.670
339.12	11.523
339.48	11.586
339.83	11.674
340.19	11.637
340.55	11.537
340.90	11.570
341.26	11.480
341.62	11.535
341.97	11.627
342.33	11.715
342.69	11.556
343.04	11.562
343.40	11.432
343.76	11.269
344.12	11.315
344.47	11.447
344.83	11.418
345.19	11.305
345.54	11.356
345.90	11.335
346.26	11.268
346.61	11.440
346.97	11.302
347.32	11.320
347.68	11.325
348.04	11.303
348.39	11.240
348.75	11.401
349.11	11.475
349.46	11.383
349.82	11.279
350.18	11.198
350.53	11.094
350.89	11.203
351.24	11.118
351.60	11.046
351.96	11.020
352.31	10.960
352.67	10.833
353.02	10.860
353.38	10.796
353.74	10.737
354.09	10.686
354.45	10.618
354.80	10.505
355.16	10.489
355.52	10.490
355.87	10.400
356.23	10.355
356.58	10.341
356.94	10.225
357.29	10.173
357.65	10.190
358.00	10.136
358.36	10.125
358.72	10.216
359.07	10.252
359.43	10.274
359.78	10.282
360.14	10.278
360.49	10.236
360.85	10.247
361.20	10.322
361.56	10.321
361.91	10.353
362.27	10.350
362.62	10.265
362.98	10.189
363.33	10.159
363.69	10.094
364.04	10.030
364.40	10.006
364.75	10.015
365.11	9.966
365.46	9.951
365.82	9.877
366.17	9.873
366.53	9.878
366.88	9.888
367.24	9.875
367.59	9.942
367.95	9.988
368.30	9.934
368.66	9.826
369.01	9.818
369.37	9.766
369.72	9.789
370.08	9.784
370.43	9.720
370.78	9.644
371.14	9.607
371.49	9.600
371.85	9.592
372.20	9.574
372.56	9.604
372.91	9.574
373.26	9.548
373.62	9.501
373.97	9.499
374.33	9.485
374.68	9.507
375.03	9.519
375.39	9.416
375.74	9.386
376.10	9.380
376.45	9.394
376.80	9.390
377.16	9.368
377.51	9.415
377.87	9.282
378.22	9.285
378.57	9.283
378.93	9.182
379.28	9.244
379.63	9.196
379.99	9.194
380.34	9.163
380.70	9.139
381.05	9.183
381.40	9.127
381.76	9.147
382.11	9.152
382.46	9.113
382.82	9.101
383.17	9.026
383.52	9.025
383.88	8.983
384.23	8.955
384.58	8.917
384.94	8.869
385.29	8.873
385.64	8.927
385.99	8.948
386.35	8.987
386.70	9.010
387.05	8.972
387.41	8.934
387.76	8.949
388.11	8.891
388.47	8.913
388.82	8.851
389.17	8.789
389.52	8.734
389.88	8.654
390.23	8.600
390.58	8.545
390.93	8.560
391.29	8.529
391.64	8.502
391.99	8.493
392.34	8.427
392.70	8.388
393.05	8.378
393.40	8.360
393.75	8.331
394.11	8.289
394.46	8.265
394.81	8.217
395.16	8.181
395.52	8.151
395.87	8.124
396.22	8.087
396.57	8.110
396.92	8.081
397.28	8.036
397.63	8.013
397.98	8.007
398.33	7.980
398.68	7.971
399.04	7.973
399.39	7.965
399.74	7.962
400.09	7.938
400.44	7.896
400.80	7.883
401.15	7.874
401.50	7.862
401.85	7.834
402.20	7.849
402.55	7.846
402.90	7.793
403.26	7.762
403.61	7.733
403.96	7.718
404.31	7.720
404.66	7.701
405.01	7.700
405.36	7.672
405.72	7.646
406.07	7.604
406.42	7.581
406.77	7.576
407.12	7.540
407.47	7.545
407.82	7.547
408.17	7.493
408.53	7.501
408.88	7.472
409.23	7.459
409.58	7.423
409.93	7.377
410.28	7.349
410.63	7.336
410.98	7.334
411.33	7.277
411.68	7.227
412.03	7.227
412.38	7.183
412.73	7.155
413.09	7.141
413.44	7.149
413.79	7.174
414.14	7.165
414.49	7.146
414.84	7.133
415.19	7.135
415.54	7.147
415.89	7.134
416.24	7.119
416.59	7.110
416.94	7.092
417.29	7.074
417.64	7.059
417.99	7.057
418.34	7.060
418.69	7.039
419.04	7.017
419.39	7.013
419.74	6.996
420.09	6.999
420.44	6.987
420.79	6.980
421.14	6.967
421.49	6.954
421.84	6.938
422.19	6.934
422.54	6.954
422.89	6.948
423.24	6.927
423.59	6.928
423.94	6.913
424.29	6.896
424.64	6.878
424.99	6.891
425.34	6.889
425.68	6.862
426.03	6.869
426.38	6.837
426.73	6.846
427.08	6.827
427.43	6.830
427.78	6.824
428.13	6.841
428.48	6.857
428.83	6.858
429.18	6.855
429.53	6.876
429.87	6.842
430.22	6.813
430.57	6.800
430.92	6.788
431.27	6.780
431.62	6.776
431.97	6.762
432.32	6.746
432.67	6.729
433.01	6.699
433.36	6.684
433.71	6.675
434.06	6.685
434.41	6.695
434.76	6.730
435.11	6.725
435.45	6.717
435.80	6.712
436.15	6.717
436.50	6.703
436.85	6.726
437.20	6.720
437.54	6.717
437.89	6.694
438.24	6.695
438.59	6.665
438.94	6.639
439.29	6.627
439.63	6.622
439.98	6.610
440.33	6.599
440.68	6.569
441.03	6.560
441.37	6.544
441.72	6.548
442.07	6.528
442.42	6.516
442.76	6.528
443.11	6.515
443.46	6.502
443.81	6.506
444.16	6.509
444.50	6.502
444.85	6.496
445.20	6.495
445.55	6.486
445.89	6.467
446.24	6.455
446.59	6.438
446.94	6.431
447.28	6.415
447.63	6.392
447.98	6.385
448.32	6.382
448.67	6.352
449.02	6.333
449.37	6.318
449.71	6.317
450.06	6.316
450.41	6.301
450.75	6.297
451.10	6.282
451.45	6.275
451.79	6.254
452.14	6.247
452.49	6.251
452.84	6.254
453.18	6.222
453.53	6.204
453.88	6.198
454.22	6.195
454.57	6.193
454.92	6.198
455.26	6.185
455.61	6.182
455.95	6.183
456.30	6.183
456.65	6.167
456.99	6.184
457.34	6.199
457.69	6.213
458.03	6.206
458.38	6.187
458.73	6.176
459.07	6.177
459.42	6.164
459.76	6.139
460.11	6.108
460.46	6.097
460.80	6.098
461.15	6.065
461.49	6.033
461.84	6.024
462.19	6.028
462.53	6.034
462.88	6.005
463.22	6.000
463.57	6.017
463.91	6.048
464.26	6.059
464.61	6.023
464.95	6.030
465.30	6.018
465.64	6.013
465.99	5.987
466.33	5.972
466.68	5.972
467.02	5.977
467.37	5.958
467.71	5.938
468.06	5.914
468.41	5.925
468.75	5.905
469.10	5.887
469.44	5.859
469.79	5.865
470.13	5.875
470.48	5.837
470.82	5.812
471.17	5.805
471.51	5.787
471.86	5.760
472.20	5.738
472.55	5.749
472.89	5.741
473.23	5.746
473.58	5.726
473.92	5.701
474.27	5.706
474.61	5.701
474.96	5.681
475.30	5.657
475.65	5.646
475.99	5.644
476.34	5.622
476.68	5.614
477.02	5.605
477.37	5.606
477.71	5.589
478.06	5.609
478.40	5.644
478.75	5.699
479.09	5.773
479.43	5.847
479.78	5.924
480.12	6.006
480.47	6.091
480.81	6.195
481.15	6.288
481.50	6.404
481.84	6.520
482.19	6.631
482.53	6.726
482.87	6.762
483.22	6.743
483.56	6.667
483.90	6.553
484.25	6.417
484.59	6.288
484.94	6.187
485.28	6.078
485.62	5.940
485.97	5.794
486.31	5.663
486.65	5.578
487.00	5.552
487.34	5.566
487.68	5.614
488.03	5.680
488.37	5.716
488.71	5.717
489.06	5.697
489.40	5.676
489.74	5.650
490.09	5.628
490.43	5.605
490.77	5.574
491.11	5.555
491.46	5.526
491.80	5.492
492.14	5.437
492.49	5.401
492.83	5.364
493.17	5.338
493.51	5.307
493.86	5.271
494.20	5.245
494.54	5.220
494.88	5.196
495.23	5.191
495.57	5.183
495.91	5.197
496.25	5.182
496.60	5.168
496.94	5.156
497.28	5.161
497.62	5.152
497.97	5.140
498.31	5.135
498.65	5.110
498.99	5.083
499.33	5.062
499.68	5.042
500.02	5.023
500.36	5.001
500.70	4.986
501.04	4.962
501.39	4.949
501.73	4.957
502.07	4.949
502.41	4.945
502.75	4.936
503.09	4.932
503.44	4.930
503.78	4.937
504.12	4.952
504.46	4.952
504.80	4.951
505.14	4.953
505.49	4.932
505.83	4.945
506.17	4.959
506.51	4.977
506.85	4.969
507.19	4.971
507.53	4.968
507.87	4.963
508.22	4.971
508.56	4.955
508.90	4.941
509.24	4.940
509.58	4.913
509.92	4.913
510.26	4.880
510.60	4.877
510.94	4.858
511.28	4.845
511.63	4.842
511.97	4.811
512.31	4.802
512.65	4.808
512.99	4.795
513.33	4.809
513.67	4.800
514.01	4.818
514.35	4.826
514.69	4.840
515.03	4.869
515.37	4.865
515.71	4.885
516.05	4.899
516.39	4.900
516.73	4.929
517.07	4.932
517.41	4.922
517.75	4.908
518.09	4.907
518.43	4.883
518.77	4.842
519.11	4.832
519.45	4.802
519.79	4.780
520.13	4.748
520.47	4.699
520.81	4.681
521.15	4.672
521.49	4.681
521.83	4.670
522.17	4.690
522.51	4.709
522.85	4.732
523.19	4.774
523.53	4.840
523.87	4.894
524.21	4.954
524.55	4.993
524.89	5.037
525.23	5.075
525.57	5.112
525.91	5.140
526.25	5.168
526.58	5.187
526.92	5.203
527.26	5.198
527.60	5.192
527.94	5.175
528.28	5.153
528.62	5.130
528.96	5.095
529.30	5.064
529.64	5.035
529.97	5.006
530.31	4.978
530.65	4.938
530.99	4.919
531.33	4.904
531.67	4.895
532.01	4.882
532.35	4.872
532.68	4.853
533.02	4.832
533.36	4.807
533.70	4.782
534.04	4.760
534.38	4.748
534.71	4.711
535.05	4.677
535.39	4.647
535.73	4.637
536.07	4.615
536.41	4.635
536.74	4.653
537.08	4.664
537.42	4.687
537.76	4.701
538.10	4.712
538.43	4.740
538.77	4.768
539.11	4.790
539.45	4.803
539.79	4.816
540.12	4.803
540.46	4.791
540.80	4.788
541.14	4.765
541.47	4.750
541.81	4.724
542.15	4.698
542.49	4.654
542.82	4.607
543.16	4.567
543.50	4.528
543.84	4.499
544.17	4.480
544.51	4.460
544.85	4.445
545.18	4.425
545.52	4.418
545.86	4.392
546.20	4.383
546.53	4.363
546.87	4.337
547.21	4.308
547.54	4.293
547.88	4.263
548.22	4.239
548.55	4.221
548.89	4.201
549.23	4.187
549.56	4.165
549.90	4.176
550.24	4.174
550.57	4.185
550.91	4.178
551.25	4.154
551.58	4.148
551.92	4.136
552.26	4.113
552.59	4.090
552.93	4.072
553.27	4.075
553.60	4.040
553.94	4.033
554.27	4.009
554.61	4.016
554.95	4.047
555.28	4.066
555.62	4.066
555.95	4.060
556.29	4.068
556.63	4.070
556.96	4.052
557.30	4.057
557.63	4.049
557.97	4.062
558.31	4.085
558.64	4.059
558.98	4.028
559.31	4.018
559.65	4.030
559.98	4.010
560.32	4.011
560.65	4.024
560.99	4.002
561.33	4.012
561.66	4.019
562.00	3.996
562.33	4.020
562.67	4.033
563.00	4.050
563.34	4.048
563.67	4.058
564.01	4.060
564.34	4.045
564.68	4.088
565.01	4.090
565.35	4.077
565.68	4.076
566.02	4.064
566.35	4.071
566.69	4.052
567.02	4.051
567.36	4.057
567.69	4.045
568.03	4.059
568.36	4.047
568.69	4.038
569.03	4.038
569.36	4.063
569.70	4.052
570.03	4.045
570.37	4.060
570.70	4.085
571.04	4.098
571.37	4.094
571.70	4.091
572.04	4.088
572.37	4.088
572.71	4.089
573.04	4.063
573.37	4.085
573.71	4.072
574.04	4.069
574.38	4.043
574.71	4.020
575.04	4.021
575.38	4.001
575.71	3.979
576.05	3.983
576.38	3.972
576.71	3.951
577.05	3.923
577.38	3.924
577.71	3.916
578.05	3.889
578.38	3.877
578.71	3.871
579.05	3.875
579.38	3.884
579.71	3.848
580.05	3.814
580.38	3.819
580.71	3.794
581.05	3.781
581.38	3.760
581.71	3.761
582.05	3.758
582.38	3.764
582.71	3.758
583.04	3.723
583.38	3.735
583.71	3.761
584.04	3.776
584.38	3.775
584.71	3.763
585.04	3.769
585.37	3.779
585.71	3.784
586.04	3.784
586.37	3.810
586.70	3.838
587.04	3.839
587.37	3.827
587.70	3.828
588.03	3.844
588.37	3.840
588.70	3.824
589.03	3.819
589.36	3.803
589.69	3.774
590.03	3.734
590.36	3.703
590.69	3.710
591.02	3.701
591.35	3.666
591.69	3.651
592.02	3.654
592.35	3.651
592.68	3.639
593.01	3.655
593.35	3.675
593.68	3.687
594.01	3.690
594.34	3.661
594.67	3.656
595.00	3.665
595.34	3.658
595.67	3.634
596.00	3.632
596.33	3.606
596.66	3.567
596.99	3.529
597.32	3.500
597.65	3.495
597.99	3.479
598.32	3.447
598.65	3.419
598.98	3.412
599.31	3.426
599.64	3.430
599.97	3.438
600.30	3.433
600.63	3.442
600.96	3.449
601.30	3.455
601.63	3.477
601.96	3.516
602.29	3.527
602.62	3.535
602.95	3.536
603.28	3.513
603.61	3.511
603.94	3.511
604.27	3.493
604.60	3.481
604.93	3.443
605.26	3.409
605.59	3.359
605.92	3.344
606.25	3.304
606.58	3.303
606.91	3.295
607.24	3.288
607.57	3.270
607.90	3.284
608.23	3.252
608.56	3.255
608.89	3.254
609.22	3.218
609.55	3.190
609.88	3.164
610.21	3.126
610.54	3.098
610.87	3.067
611.20	3.041
611.53	2.997
611.86	2.983
612.19	2.939
612.52	2.914
612.85	2.937
613.18	2.924
613.51	2.884
613.84	2.870
614.17	2.853
614.49	2.857
614.82	2.878
615.15	2.847
615.48	2.849
615.81	2.863
616.14	2.854
616.47	2.844
616.80	2.858
617.13	2.865
617.46	2.842
617.78	2.817
618.11	2.780
618.44	2.730
618.77	2.727
619.10	2.717
619.43	2.703
619.76	2.686
620.09	2.660
620.41	2.632
620.74	2.672
621.07	2.661
621.40	2.661
621.73	2.687
622.06	2.738
622.38	2.757
622.71	2.747
623.04	2.736
623.37	2.764
623.70	2.809
624.02	2.805
624.35	2.815
624.68	2.821
625.01	2.857
625.34	2.853
625.66	2.870
625.99	2.889
626.32	2.909
626.65	2.916
626.98	2.898
627.30	2.865
627.63	2.884
627.96	2.845
628.29	2.835
628.61	2.798
628.94	2.785
629.27	2.732
629.60	2.726
629.92	2.684
630.25	2.699
630.58	2.677
630.91	2.662
631.23	2.611
631.56	2.613
631.89	2.647
632.21	2.650
632.54	2.608
632.87	2.616
633.19	2.602
633.52	2.602
633.85	2.591
634.18	2.573
634.50	2.549
634.83	2.531
635.16	2.530
635.48	2.482
635.81	2.450
636.14	2.461
636.46	2.430
636.79	2.397
637.11	2.394
637.44	2.383
637.77	2.401
638.09	2.397
638.42	2.407
638.75	2.369
639.07	2.361
639.40	2.331
639.73	2.323
640.05	2.328
640.38	2.290
640.70	2.292
641.03	2.255
641.36	2.268
641.68	2.267
642.01	2.238
642.33	2.240
642.66	2.241
642.98	2.262
643.31	2.271
643.64	2.240
643.96	2.259
644.29	2.229
644.61	2.252
644.94	2.230
645.26	2.252
645.59	2.302
645.91	2.331
646.24	2.317
646.56	2.343
646.89	2.362
647.22	2.393
647.54	2.402
647.87	2.417
648.19	2.406
648.52	2.432
648.84	2.409
649.17	2.392
649.49	2.383
649.82	2.350
650.14	2.340
650.47	2.309
650.79	2.264
651.11	2.255
651.44	2.243
651.76	2.205
652.09	2.170
652.41	2.189
652.74	2.188
653.06	2.149
653.39	2.202
653.71	2.184
654.04	2.182
654.36	2.223
654.68	2.220
655.01	2.261
655.33	2.299
655.66	2.313
655.98	2.293
656.30	2.307
656.63	2.343
656.95	2.358
657.28	2.401
657.60	2.400
657.92	2.374
658.25	2.380
658.57	2.316
658.90	2.307
659.22	2.277
659.54	2.285
659.87	2.233
660.19	2.163
660.51	2.116
660.84	2.045
661.16	2.014
661.48	1.968
661.81	1.917
662.13	1.933
662.45	1.889
662.78	1.857
663.10	1.829
663.42	1.845
663.75	1.867
664.07	1.861
664.39	1.847
664.72	1.850
665.04	1.855
665.36	1.860
665.69	1.853
666.01	1.817
666.33	1.863
666.65	1.868
666.98	1.856
667.30	1.879
667.62	1.828
667.94	1.857
668.27	1.841
668.59	1.850
668.91	1.849
669.23	1.867
669.56	1.878
669.88	1.818
670.20	1.727
670.52	1.696
670.85	1.676
671.17	1.664
671.49	1.629
671.81	1.656
672.13	1.628
672.46	1.589
672.78	1.479
673.10	1.485
673.42	1.475
673.74	1.557
674.07	1.572
674.39	1.532
674.71	1.571
675.03	1.649
675.35	1.614
675.67	1.656
676.00	1.713
676.32	1.844
676.64	1.842
676.96	1.909
677.28	1.941
677.60	1.951
677.92	2.022
678.25	2.037
678.57	1.991
678.89	1.995
679.21	1.987
679.53	2.001
679.85	1.951
680.17	1.964
680.49	1.962
680.81	1.922
681.13	1.965
681.46	1.959
681.78	1.965
682.10	1.919
682.42	1.964
682.74	1.984
683.06	1.954
683.38	1.980
683.70	2.032
684.02	2.013
684.34	2.041
684.66	2.038
684.98	2.034
685.30	2.122
685.62	2.225
685.94	2.188
686.26	2.184
686.58	2.169
686.90	2.213
687.22	2.199
687.54	2.227
687.86	2.199
688.18	2.136
688.50	2.070
688.82	1.964
689.14	1.891
689.46	1.892
689.78	1.853
690.10	1.835
690.42	1.787
690.74	1.719
691.06	1.675
691.38	1.668
691.70	1.628
692.02	1.622
692.34	1.627
692.66	1.600
692.98	1.597
693.30	1.670
693.62	1.680
693.94	1.611
694.26	1.731
694.57	1.760
694.89	1.823
695.21	1.956
695.53	1.984
695.85	2.025
696.17	2.129
696.49	2.173
696.81	2.205
697.13	2.250
697.44	2.376
697.76	2.297
698.08	2.280
698.40	2.253
698.72	2.179
699.04	2.126
699.36	2.038
699.67	1.927
699.99	1.764
700.31	1.638
700.63	1.546
700.95	1.350
701.27	1.292
701.58	1.192
701.90	1.014
702.22	0.942
702.54	0.866
702.86	0.781
703.17	0.670
703.49	0.753
703.81	0.721
704.13	0.731
704.45	0.689
704.76	0.633
705.08	0.582
705.40	0.581
705.72	0.563
706.03	0.635
706.35	0.739
706.67	0.768
706.99	0.710
707.30	0.653
707.62	0.559
707.94	0.550
708.26	0.520
708.57	0.590
708.89	0.675
709.21	0.665
709.53	0.626
709.84	0.564
710.16	0.589
710.48	0.647
710.79	0.638
711.11	0.777
711.43	0.806
711.74	0.848
712.06	0.840
712.38	0.831
712.69	0.875
713.01	0.983
713.33	1.071
713.64	1.140
713.96	1.151
714.28	1.354
714.59	1.352
714.91	1.517
715.23	1.690
715.54	1.836
715.86	1.956
716.17	2.100
716.49	2.159
716.81	2.185
717.12	2.116
717.44	2.122
717.76	2.035
718.07	1.974
718.39	1.800
718.70	1.638
719.02	1.425
719.33	1.276
719.65	1.143
719.97	1.018
720.28	0.951
720.60	0.940
720.91	0.993
721.23	0.916
721.54	1.041
721.86	1.093
722.17	1.145
722.49	1.195
722.81	1.212
723.12	1.152
723.44	1.178
723.75	1.233
724.07	1.314
724.38	1.314
724.70	1.337
725.01	1.222
725.33	1.286
725.64	1.330
725.96	1.323
726.27	1.333
726.59	1.423
726.90	1.462
727.22	1.435
727.53	1.363
727.84	1.302
728.16	1.297
728.47	1.296
728.79	1.216
729.10	1.158
729.42	1.075
729.73	1.019
730.05	0.957
730.36	0.838
730.67	0.745
730.99	0.788
731.30	0.672
731.62	0.543
731.93	0.471
732.24	0.356
732.56	0.205
732.87	0.124
733.19	0.070
733.50	-0.002
733.81	-0.065
734.13	-0.050
734.44	-0.257
734.76	-0.210
735.07	-0.279
735.38	-0.325
735.70	-0.384
736.01	-0.375
736.32	-0.328
736.64	-0.349
736.95	-0.488
737.26	-0.572
737.58	-0.747
737.89	-0.692
738.20	-0.877
738.52	-0.971
738.83	-1.076
739.14	-1.084
739.45	-1.087
739.77	-1.088
740.08	-1.120
740.39	-1.189
740.71	-1.252
741.02	-1.218
741.33	-1.293
741.64	-1.391
741.96	-1.493
742.27	-1.555
742.58	-1.725
742.90	-1.747
743.21	-1.853
743.52	-2.024
743.83	-1.871
744.14	-1.898
744.46	-2.012
744.77	-2.029
745.08	-1.872
745.39	-1.859
745.71	-1.976
746.02	-1.978
746.33	-2.138
746.64	-1.974
746.95	-1.813
747.27	-1.894
747.58	-1.870
747.89	-1.860
748.20	-1.966
748.51	-1.988
748.82	-1.736
749.14	-1.602
749.45	-1.372
749.76	-1.335
750.07	-1.538
750.38	-1.521
750.69	-1.441
751.01	-1.343
751.32	-1.259
751.63	-1.367
751.94	-1.405
752.25	-1.555
752.56	-1.558
752.87	-1.643
753.18	-1.693
753.49	-1.642
753.81	-1.703
754.12	-1.687
754.43	-1.694
754.74	-1.571
755.05	-1.350
755.36	-1.112
755.67	-0.912
755.98	-0.607
756.29	-0.252
756.60	0.023
756.91	0.435
757.22	0.724
757.53	1.115
757.84	1.527
758.15	1.869
758.46	2.269
758.77	2.570
759.09	2.951
759.40	3.133
759.71	3.300
760.02	3.471
760.33	3.473
760.64	3.567
760.95	3.563
761.26	3.524
761.57	3.483
761.88	3.410
762.18	3.334
762.49	3.219
762.80	3.067
763.11	2.758
763.42	2.605
763.73	2.489
764.04	2.159
764.35	1.823
764.66	1.531
764.97	1.290
765.28	1.042
765.59	0.632
765.90	0.273
766.21	0.107
766.52	-0.120
766.83	-0.348
767.14	-0.640
767.44	-0.701
767.75	-0.845
768.06	-1.077
768.37	-1.450
768.68	-1.735
768.99	-1.899
769.30	-2.192
769.61	-2.656
769.91	-2.804
770.22	-2.932
770.53	-2.950
770.84	-2.778
771.15	-2.837
771.46	-2.816
771.77	-2.957
772.07	-2.761
772.38	-2.816
772.69	-2.857
773.00	-3.051
773.31	-2.733
773.61	-2.881
773.92	-3.063
774.23	-3.424
774.54	-3.555
774.85	-3.564
775.15	-3.379
775.46	-3.853
775.77	-3.916
776.08	-3.801
776.39	-3.629
776.69	-3.828
777.00	-3.755
777.31	-3.698
777.62	-3.495
777.92	-3.507
778.23	-3.413
778.54	-3.647
778.85	-3.411
779.15	-3.194
779.46	-3.319
779.77	-3.270
780.07	-3.218
780.38	-3.290
780.69	-3.568
781.00	-3.967
781.30	-3.947
781.61	-4.139
781.92	-3.860
782.22	-3.793
782.53	-3.888
782.84	-3.854
783.14	-3.610
783.45	-3.628
783.76	-3.237
784.06	-2.810
784.37	-2.265
784.68	-2.244
784.98	-1.806
785.29	-1.741
785.60	-1.356
785.90	-1.151
786.21	-0.759
786.51	-0.650
786.82	-0.676
787.13	-0.498
787.43	-0.505
787.74	-0.834
788.04	-0.542
788.35	-0.911
788.66	-1.171
788.96	-1.386
789.27	-1.215
789.57	-1.370
789.88	-1.366
790.19	-1.241
790.49	-1.492
790.80	-1.416
791.10	-1.116
791.41	-1.305
791.71	-0.878
792.02	-0.434
792.32	-0.365
792.63	-0.369
792.93	-0.178
793.24	-0.355
793.54	-0.457
793.85	-0.272
794.15	-0.150
794.46	-0.244
794.76	-0.096
795.07	-0.229
795.37	-0.096
795.68	-0.010
795.98	-0.147
796.29	-0.203
796.59	-0.200
796.90	-0.427
797.20	-0.748
797.51	-0.812
797.81	-0.817
798.12	-0.928
798.42	-1.015
798.72	-1.319
799.03	-1.519
799.33	-1.553
799.64	-1.852
799.94	-1.562
800.25	-1.002
800.55	-0.802
800.85	-1.232
801.16	-1.260
801.46	-1.278
801.77	-1.435
802.07	-1.483
802.37	-1.689
802.68	-1.841
802.98	-1.589
803.28	-1.654
803.59	-2.101
803.89	-2.055
804.20	-1.888
804.50	-1.888
804.80	-2.143
805.11	-1.800
805.41	-1.633
805.71	-1.232
806.02	-1.213
806.32	-0.856
806.62	-0.786
806.93	-0.381
807.23	-0.081
807.53	0.078
807.83	0.390
808.14	0.836
808.44	0.950
808.74	1.482
809.05	1.771
809.35	2.524
809.65	2.122
809.95	2.034
810.26	2.029
810.56	1.484
810.86	1.855
811.16	1.697
811.47	1.816
811.77	2.074
812.07	1.864
812.37	1.598
812.68	1.280
812.98	1.864
813.28	1.847
813.58	1.774
813.88	1.920
814.19	2.101
814.49	2.195
814.79	1.957
815.09	1.942
815.39	1.638
815.70	1.754
816.00	1.587
816.30	1.281
816.60	1.448
816.90	1.554
817.20	1.764
817.50	1.880
817.81	2.312
818.11	2.860
818.41	3.191
818.71	3.550
819.01	3.850
819.31	4.115
819.61	4.246
819.92	4.394
820.22	4.535
820.52	4.690
820.82	4.765
821.12	4.800
821.42	4.843
821.72	4.903
822.02	4.881
822.32	4.879
822.62	4.867
822.92	4.877
823.22	4.811
823.52	4.795
823.83	4.674
824.13	4.647
824.43	4.614
824.73	4.550
825.03	4.402
825.33	4.446
825.63	4.383
825.93	4.353
826.23	4.289
826.53	4.311
826.83	4.306
827.13	4.321
827.43	4.282
827.73	4.192
828.03	4.053
828.33	3.916
828.63	3.713
828.93	3.614
829.23	3.540
829.53	3.540
829.83	3.758
830.13	3.634
830.42	3.857
830.72	3.935
831.02	4.265
831.32	4.426
831.62	4.588
831.92	4.608
832.22	4.577
832.52	4.609
832.82	4.724
833.12	4.441
833.42	4.224
833.72	4.253
834.01	4.056
834.31	3.888
834.61	3.878
834.91	3.909
835.21	3.930
835.51	4.036
835.81	4.111
836.11	3.910
836.40	3.763
836.70	4.263
837.00	4.009
837.30	3.990
837.60	3.685
837.90	3.248
838.19	2.711
838.49	2.137
838.79	1.223
839.09	0.791
839.39	0.199
839.68	-0.155
839.98	-0.590
840.28	-1.666
840.58	-2.009
840.88	-2.779
841.17	-3.517
841.47	-3.937
841.77	-3.990
842.07	-4.313
842.36	-5.372
842.66	-6.271
842.96	-5.491
843.26	-6.709
843.55	-6.114
843.85	-7.381
844.15	-7.255
844.45	-4.882
844.74	-4.341
845.04	-4.944
845.34	-5.119
845.63	-6.185
845.93	-4.564
846.23	-5.291
846.53	-4.119
846.82	-4.206
847.12	-2.640
847.42	-3.645
847.71	-5.923
848.01	-5.528
848.31	-4.712
848.60	-4.960
848.90	-4.008
849.19	-3.980
849.49	-4.322
849.79	-5.577
850.08	-4.123
850.38	-3.271
850.68	-0.581
850.97	0.086
851.27	-1.744
851.56	-3.489
851.86	-3.766
852.16	-3.262
852.45	-3.271
852.75	-3.189
853.04	-2.447
853.34	-2.826
853.64	-4.924
853.93	-6.094
854.23	-6.576
854.52	-5.739
854.82	-2.616
855.11	-1.395
855.41	-1.817
855.70	-1.974
856.00	-1.267
856.30	-1.370
856.59	-3.522
856.89	-1.968
857.18	-2.321
857.48	-2.183
857.77	-3.525
858.07	-5.659
858.36	-5.322
858.66	-5.769
858.95	-4.763
859.25	-6.048
859.54	-5.963
859.84	-5.231
860.13	-6.279
860.42	-5.396
860.72	-4.369
861.01	-3.440
861.31	-3.794
861.60	-4.059
861.90	-4.605
862.19	-6.175
862.49	-6.695
862.78	-5.256
863.07	-4.362
863.37	-4.470
863.66	-5.366
863.96	-6.362
864.25	-6.283
864.54	-3.419
864.84	-3.879
865.13	-3.949
865.43	-5.362
865.72	-6.870
866.01	13.287
866.31	-8.582
866.60	-18.583
866.89	-20.578
>>>>>End Spectral Data<<<<<
