OOIBase32 Version 2.0.0.6 Data File
++++++++++++++++++++++++++++++++++++
Date: 01-19-2012, 15:21:01
User: Valued Ocean Optics Customer
Spectrometer Serial Number: USB2E2917
Spectrometer Channel: Master
Integration Time (msec): 5
Spectra Averaged: 10
Boxcar Smoothing: 5
Correct for Electrical Dark: Enabled
Time Normalized: Disabled
Dual-beam Reference: Disabled
Reference Channel: Master
Temperature: Not acquired
Spectrometer Type: S2000
ADC Type: USB2000
Number of Pixels in File: 2048
Graph Title: 
>>>>>Begin Spectral Data<<<<<
180.30	0.000
180.67	0.000
181.03	6555.971
181.40	-55.639
181.77	3.978
182.14	-52.128
182.51	-372.250
182.88	205.522
183.25	55.417
183.62	-75.494
183.99	37.324
184.36	-6.300
184.73	-317.233
185.10	159.673
185.46	104.542
185.83	72.466
186.20	-624.011
186.57	-4.432
186.94	-1379.142
187.31	-35.677
187.68	-10.390
188.05	45.046
188.42	16.440
188.78	18.406
189.15	44.203
189.52	47.262
189.89	60.562
190.26	16.021
190.63	16.086
191.00	18.775
191.37	10.265
191.73	-8.899
192.10	-29.293
192.47	-21.347
192.84	-29.204
193.21	-42.395
193.58	-17.122
193.94	-36.571
194.31	-49.772
194.68	-46.316
195.05	-64.066
195.42	-70.437
195.79	-29.323
196.15	-12.007
196.52	-6.267
196.89	3.893
197.26	-6.786
197.63	-10.415
198.00	3.026
198.36	23.364
198.73	35.036
199.10	36.302
199.47	47.233
199.84	45.468
200.20	56.024
200.57	57.254
200.94	53.649
201.31	53.968
201.68	43.482
202.04	42.430
202.41	36.971
202.78	16.134
203.15	19.374
203.51	-2.488
203.88	-15.776
204.25	-3.041
204.62	-16.967
204.98	-38.185
205.35	-46.199
205.72	-16.666
206.09	-52.073
206.46	-48.484
206.82	-23.311
207.19	-15.507
207.56	-5.342
207.92	-10.033
208.29	-36.847
208.66	-43.642
209.03	-43.809
209.39	-40.798
209.76	-71.796
210.13	-58.619
210.50	-27.342
210.86	-37.496
211.23	-37.286
211.60	-61.359
211.96	-49.788
212.33	-27.630
212.70	-54.371
213.07	-28.365
213.43	-29.922
213.80	-21.319
214.17	-23.299
214.53	-19.054
214.90	-7.229
215.27	-27.898
215.63	-23.269
216.00	-36.149
216.37	-58.679
216.74	-7.935
217.10	-13.209
217.47	1.893
217.84	9.069
218.20	8.963
218.57	-7.404
218.94	-5.259
219.30	2.772
219.67	4.450
220.04	10.600
220.40	11.221
220.77	12.910
221.13	9.268
221.50	6.801
221.87	3.317
222.23	2.617
222.60	4.188
222.97	-4.378
223.33	-0.805
223.70	-2.489
224.07	-1.754
224.43	-1.114
224.80	-2.360
225.16	-1.761
225.53	0.588
225.90	-0.230
226.26	-0.855
226.63	-1.396
226.99	-0.462
227.36	-1.942
227.73	-1.989
228.09	-0.571
228.46	0.021
228.82	0.280
229.19	0.130
229.56	-1.731
229.92	-0.727
230.29	0.493
230.65	0.587
231.02	0.865
231.38	2.495
231.75	2.273
232.12	-0.268
232.48	-1.419
232.85	-1.946
233.21	-1.277
233.58	0.403
233.94	-0.131
234.31	-0.641
234.68	-0.129
235.04	0.319
235.41	0.296
235.77	1.235
236.14	2.690
236.50	2.394
236.87	2.696
237.23	2.187
237.60	1.509
237.96	2.159
238.33	2.564
238.69	3.157
239.06	3.421
239.42	3.082
239.79	2.730
240.15	2.738
240.52	3.172
240.88	3.128
241.25	3.402
241.61	3.454
241.98	3.296
242.34	3.027
242.71	2.884
243.07	2.588
243.44	2.660
243.80	2.836
244.17	2.505
244.53	2.580
244.90	2.665
245.26	2.453
245.63	2.647
245.99	2.427
246.36	2.614
246.72	2.654
247.09	2.682
247.45	2.807
247.81	2.938
248.18	3.163
248.54	3.490
248.91	3.487
249.27	3.631
249.64	3.314
250.00	3.732
250.36	3.707
250.73	3.919
251.09	4.134
251.46	3.918
251.82	3.753
252.19	3.390
252.55	2.725
252.91	2.898
253.28	3.104
253.64	3.427
254.01	2.871
254.37	2.620
254.73	2.351
255.10	2.535
255.46	2.656
255.83	2.780
256.19	2.806
256.55	2.945
256.92	2.956
257.28	2.867
257.65	2.857
258.01	3.022
258.37	2.819
258.74	2.785
259.10	2.629
259.46	2.457
259.83	2.413
260.19	2.540
260.55	2.346
260.92	2.190
261.28	2.185
261.64	1.963
262.01	1.822
262.37	2.005
262.73	1.739
263.10	1.448
263.46	1.607
263.82	1.603
264.19	1.536
264.55	1.682
264.91	1.690
265.28	1.797
265.64	1.718
266.00	1.904
266.37	1.926
266.73	2.208
267.09	2.582
267.46	2.721
267.82	2.797
268.18	2.882
268.54	2.817
268.91	2.956
269.27	2.706
269.63	2.820
270.00	2.539
270.36	2.495
270.72	2.643
271.08	2.471
271.45	2.328
271.81	2.090
272.17	1.794
272.53	2.027
272.90	2.080
273.26	2.285
273.62	2.330
273.98	2.625
274.35	2.793
274.71	2.282
275.07	2.204
275.43	2.359
275.80	2.682
276.16	2.715
276.52	2.596
276.88	2.558
277.25	2.390
277.61	2.374
277.97	2.442
278.33	2.460
278.69	2.923
279.06	2.929
279.42	2.715
279.78	2.444
280.14	2.649
280.50	2.747
280.87	2.517
281.23	2.434
281.59	2.160
281.95	2.040
282.31	1.965
282.68	1.903
283.04	1.952
283.40	2.152
283.76	2.256
284.12	2.258
284.48	2.154
284.85	2.482
285.21	2.619
285.57	2.792
285.93	2.846
286.29	2.886
286.65	2.837
287.02	2.882
287.38	2.812
287.74	2.880
288.10	2.887
288.46	2.914
288.82	2.600
289.18	2.383
289.54	2.442
289.91	2.505
290.27	2.588
290.63	2.637
290.99	2.939
291.35	3.187
291.71	3.156
292.07	3.375
292.43	3.521
292.79	3.872
293.16	4.366
293.52	4.699
293.88	4.696
294.24	4.768
294.60	4.973
294.96	5.085
295.32	5.411
295.68	5.758
296.04	5.870
296.40	6.139
296.76	6.242
297.12	6.473
297.49	6.600
297.85	6.884
298.21	7.098
298.57	7.200
298.93	7.432
299.29	7.404
299.65	7.552
300.01	7.720
300.37	7.607
300.73	7.754
301.09	7.676
301.45	7.728
301.81	7.861
302.17	8.007
302.53	8.103
302.89	8.285
303.25	8.403
303.61	8.457
303.97	8.677
304.33	8.999
304.69	9.035
305.05	9.358
305.41	9.413
305.77	9.378
306.13	9.372
306.49	9.471
306.85	9.227
307.21	9.145
307.57	8.985
307.93	8.794
308.29	8.749
308.65	8.788
309.01	8.634
309.37	8.680
309.73	8.618
310.09	8.668
310.45	8.560
310.81	8.390
311.17	8.275
311.53	8.346
311.89	8.322
312.25	8.061
312.61	7.930
312.96	7.794
313.32	7.789
313.68	7.747
314.04	7.614
314.40	7.575
314.76	7.882
315.12	7.820
315.48	7.737
315.84	7.713
316.20	7.844
316.56	7.745
316.92	7.655
317.27	7.441
317.63	7.501
317.99	7.329
318.35	7.313
318.71	7.137
319.07	7.179
319.43	7.153
319.79	7.117
320.15	6.987
320.50	6.954
320.86	6.973
321.22	6.902
321.58	6.702
321.94	6.694
322.30	6.487
322.66	6.276
323.01	6.101
323.37	5.922
323.73	5.805
324.09	5.657
324.45	5.543
324.81	5.407
325.17	5.249
325.52	5.260
325.88	5.129
326.24	5.026
326.60	4.988
326.96	4.874
327.31	4.673
327.67	4.506
328.03	4.489
328.39	4.412
328.75	4.271
329.11	4.183
329.46	4.071
329.82	4.126
330.18	4.207
330.54	4.305
330.90	4.338
331.25	4.371
331.61	4.460
331.97	4.500
332.33	4.529
332.68	4.634
333.04	4.716
333.40	4.805
333.76	4.819
334.11	4.910
334.47	4.756
334.83	4.826
335.19	4.901
335.54	4.815
335.90	4.802
336.26	4.833
336.62	4.716
336.97	4.717
337.33	4.630
337.69	4.427
338.05	4.241
338.40	4.145
338.76	4.006
339.12	3.994
339.48	3.978
339.83	3.935
340.19	3.862
340.55	3.900
340.90	3.867
341.26	3.864
341.62	3.953
341.97	3.963
342.33	4.029
342.69	4.082
343.04	4.035
343.40	4.070
343.76	4.060
344.12	4.116
344.47	4.044
344.83	3.964
345.19	3.980
345.54	3.975
345.90	4.006
346.26	3.927
346.61	3.874
346.97	3.908
347.32	3.859
347.68	3.805
348.04	3.716
348.39	3.701
348.75	3.691
349.11	3.556
349.46	3.481
349.82	3.355
350.18	3.321
350.53	3.250
350.89	3.056
351.24	2.947
351.60	2.961
351.96	2.907
352.31	2.962
352.67	2.921
353.02	2.885
353.38	2.868
353.74	2.941
354.09	2.980
354.45	3.151
354.80	3.346
355.16	3.454
355.52	3.475
355.87	3.562
356.23	3.539
356.58	3.703
356.94	3.790
357.29	3.843
357.65	3.764
358.00	3.844
358.36	3.793
358.72	3.781
359.07	3.743
359.43	3.668
359.78	3.649
360.14	3.639
360.49	3.550
360.85	3.374
361.20	3.350
361.56	3.388
361.91	3.260
362.27	3.120
362.62	3.004
362.98	2.912
363.33	2.880
363.69	2.688
364.04	2.565
364.40	2.435
364.75	2.460
365.11	2.347
365.46	2.232
365.82	2.123
366.17	2.129
366.53	2.080
366.88	2.145
367.24	2.093
367.59	2.235
367.95	2.293
368.30	2.328
368.66	2.373
369.01	2.486
369.37	2.579
369.72	2.787
370.08	2.820
370.43	2.813
370.78	2.815
371.14	2.844
371.49	2.810
371.85	2.853
372.20	2.850
372.56	2.837
372.91	2.755
373.26	2.694
373.62	2.533
373.97	2.423
374.33	2.409
374.68	2.286
375.03	2.263
375.39	2.187
375.74	2.120
376.10	2.068
376.45	1.994
376.80	1.977
377.16	2.009
377.51	2.048
377.87	2.170
378.22	2.276
378.57	2.381
378.93	2.468
379.28	2.598
379.63	2.717
379.99	2.905
380.34	3.118
380.70	3.209
381.05	3.299
381.40	3.354
381.76	3.364
382.11	3.366
382.46	3.397
382.82	3.432
383.17	3.404
383.52	3.342
383.88	3.251
384.23	3.135
384.58	3.113
384.94	3.069
385.29	3.059
385.64	3.044
385.99	3.025
386.35	3.041
386.70	2.970
387.05	2.878
387.41	2.807
387.76	2.760
388.11	2.718
388.47	2.687
388.82	2.702
389.17	2.689
389.52	2.675
389.88	2.689
390.23	2.708
390.58	2.765
390.93	2.875
391.29	2.978
391.64	3.030
391.99	3.090
392.34	3.124
392.70	3.075
393.05	3.103
393.40	3.093
393.75	3.010
394.11	2.920
394.46	2.836
394.81	2.689
395.16	2.533
395.52	2.373
395.87	2.175
396.22	1.953
396.57	1.741
396.92	1.463
397.28	1.249
397.63	1.009
397.98	0.778
398.33	0.585
398.68	0.452
399.04	0.333
399.39	0.241
399.74	0.230
400.09	0.214
400.44	0.202
400.80	0.249
401.15	0.285
401.50	0.399
401.85	0.478
402.20	0.540
402.55	0.601
402.90	0.654
403.26	0.714
403.61	0.679
403.96	0.679
404.31	0.710
404.66	0.684
405.01	0.662
405.36	0.609
405.72	0.547
406.07	0.493
406.42	0.410
406.77	0.308
407.12	0.223
407.47	0.169
407.82	0.132
408.17	0.057
408.53	0.042
408.88	-0.026
409.23	-0.078
409.58	-0.125
409.93	-0.170
410.28	-0.175
410.63	-0.174
410.98	-0.228
411.33	-0.190
411.68	-0.161
412.03	-0.161
412.38	-0.103
412.73	-0.033
413.09	0.096
413.44	0.227
413.79	0.389
414.14	0.572
414.49	0.777
414.84	0.978
415.19	1.156
415.54	1.311
415.89	1.552
416.24	1.722
416.59	1.913
416.94	2.059
417.29	2.201
417.64	2.303
417.99	2.394
418.34	2.459
418.69	2.552
419.04	2.628
419.39	2.697
419.74	2.737
420.09	2.758
420.44	2.771
420.79	2.763
421.14	2.759
421.49	2.745
421.84	2.721
422.19	2.709
422.54	2.673
422.89	2.630
423.24	2.566
423.59	2.489
423.94	2.402
424.29	2.293
424.64	2.201
424.99	2.079
425.34	1.980
425.68	1.878
426.03	1.738
426.38	1.623
426.73	1.517
427.08	1.456
427.43	1.401
427.78	1.409
428.13	1.419
428.48	1.462
428.83	1.504
429.18	1.551
429.53	1.579
429.87	1.625
430.22	1.640
430.57	1.658
430.92	1.643
431.27	1.644
431.62	1.622
431.97	1.602
432.32	1.518
432.67	1.476
433.01	1.387
433.36	1.311
433.71	1.237
434.06	1.171
434.41	1.126
434.76	1.129
435.11	1.119
435.45	1.140
435.80	1.180
436.15	1.257
436.50	1.291
436.85	1.381
437.20	1.428
437.54	1.494
437.89	1.523
438.24	1.544
438.59	1.541
438.94	1.501
439.29	1.446
439.63	1.369
439.98	1.314
440.33	1.280
440.68	1.238
441.03	1.221
441.37	1.223
441.72	1.275
442.07	1.295
442.42	1.344
442.76	1.436
443.11	1.523
443.46	1.637
443.81	1.698
444.16	1.756
444.50	1.775
444.85	1.788
445.20	1.759
445.55	1.701
445.89	1.633
446.24	1.529
446.59	1.385
446.94	1.239
447.28	1.064
447.63	0.881
447.98	0.703
448.32	0.537
448.67	0.363
449.02	0.222
449.37	0.096
449.71	0.056
450.06	0.030
450.41	0.065
450.75	0.063
451.10	0.069
451.45	0.082
451.79	0.078
452.14	0.078
452.49	0.090
452.84	0.088
453.18	0.082
453.53	0.056
453.88	0.038
454.22	0.036
454.57	0.100
454.92	0.173
455.26	0.298
455.61	0.435
455.95	0.568
456.30	0.676
456.65	0.804
456.99	0.920
457.34	1.030
457.69	1.137
458.03	1.174
458.38	1.196
458.73	1.175
459.07	1.107
459.42	1.008
459.76	0.891
460.11	0.772
460.46	0.621
460.80	0.449
461.15	0.266
461.49	0.086
461.84	-0.052
462.19	-0.188
462.53	-0.296
462.88	-0.364
463.22	-0.386
463.57	-0.396
463.91	-0.382
464.26	-0.361
464.61	-0.310
464.95	-0.282
465.30	-0.272
465.64	-0.267
465.99	-0.264
466.33	-0.275
466.68	-0.299
467.02	-0.346
467.37	-0.392
467.71	-0.461
468.06	-0.506
468.41	-0.577
468.75	-0.641
469.10	-0.721
469.44	-0.816
469.79	-0.901
470.13	-0.985
470.48	-1.061
470.82	-1.127
471.17	-1.193
471.51	-1.242
471.86	-1.306
472.20	-1.365
472.55	-1.447
472.89	-1.486
473.23	-1.514
473.58	-1.566
473.92	-1.578
474.27	-1.587
474.61	-1.590
474.96	-1.574
475.30	-1.567
475.65	-1.590
475.99	-1.590
476.34	-1.546
476.68	-1.529
477.02	-1.497
477.37	-1.442
477.71	-1.354
478.06	-1.218
478.40	-0.982
478.75	-0.627
479.09	-0.222
479.43	0.214
479.78	0.613
480.12	0.972
480.47	1.303
480.81	1.599
481.15	1.879
481.50	2.123
481.84	2.353
482.19	2.555
482.53	2.710
482.87	2.816
483.22	2.850
483.56	2.834
483.90	2.762
484.25	2.662
484.59	2.543
484.94	2.406
485.28	2.281
485.62	2.123
485.97	1.954
486.31	1.776
486.65	1.617
487.00	1.484
487.34	1.366
487.68	1.275
488.03	1.183
488.37	1.103
488.71	1.025
489.06	0.935
489.40	0.857
489.74	0.761
490.09	0.658
490.43	0.525
490.77	0.385
491.11	0.223
491.46	0.052
491.80	-0.131
492.14	-0.316
492.49	-0.518
492.83	-0.742
493.17	-0.970
493.51	-1.189
493.86	-1.405
494.20	-1.584
494.54	-1.711
494.88	-1.761
495.23	-1.815
495.57	-1.821
495.91	-1.839
496.25	-1.845
496.60	-1.864
496.94	-1.891
497.28	-1.942
497.62	-1.998
497.97	-2.059
498.31	-2.134
498.65	-2.225
498.99	-2.292
499.33	-2.376
499.68	-2.450
500.02	-2.534
500.36	-2.602
500.70	-2.667
501.04	-2.711
501.39	-2.750
501.73	-2.774
502.07	-2.783
502.41	-2.776
502.75	-2.775
503.09	-2.759
503.44	-2.743
503.78	-2.738
504.12	-2.692
504.46	-2.667
504.80	-2.637
505.14	-2.578
505.49	-2.537
505.83	-2.503
506.17	-2.477
506.51	-2.453
506.85	-2.423
507.19	-2.389
507.53	-2.359
507.87	-2.353
508.22	-2.339
508.56	-2.351
508.90	-2.388
509.24	-2.443
509.58	-2.498
509.92	-2.564
510.26	-2.622
510.60	-2.673
510.94	-2.735
511.28	-2.794
511.63	-2.870
511.97	-2.931
512.31	-2.980
512.65	-3.005
512.99	-2.976
513.33	-2.913
513.67	-2.830
514.01	-2.716
514.35	-2.612
514.69	-2.486
515.03	-2.351
515.37	-2.225
515.71	-2.091
516.05	-1.961
516.39	-1.865
516.73	-1.816
517.07	-1.808
517.41	-1.830
517.75	-1.891
518.09	-1.989
518.43	-2.125
518.77	-2.299
519.11	-2.461
519.45	-2.677
519.79	-2.874
520.13	-3.060
520.47	-3.207
520.81	-3.297
521.15	-3.345
521.49	-3.365
521.83	-3.317
522.17	-3.226
522.51	-3.065
522.85	-2.857
523.19	-2.540
523.53	-2.158
523.87	-1.739
524.21	-1.341
524.55	-1.007
524.89	-0.703
525.23	-0.423
525.57	-0.185
525.91	0.021
526.25	0.197
526.58	0.340
526.92	0.435
527.26	0.479
527.60	0.455
527.94	0.400
528.28	0.333
528.62	0.236
528.96	0.129
529.30	0.017
529.64	-0.126
529.97	-0.277
530.31	-0.441
530.65	-0.590
530.99	-0.737
531.33	-0.848
531.67	-0.927
532.01	-0.995
532.35	-1.077
532.68	-1.164
533.02	-1.286
533.36	-1.399
533.70	-1.521
534.04	-1.628
534.38	-1.792
534.71	-1.962
535.05	-2.126
535.39	-2.297
535.73	-2.453
536.07	-2.518
536.41	-2.526
536.74	-2.454
537.08	-2.330
537.42	-2.180
537.76	-2.014
538.10	-1.816
538.43	-1.599
538.77	-1.394
539.11	-1.214
539.45	-1.058
539.79	-0.941
540.12	-0.867
540.46	-0.843
540.80	-0.868
541.14	-0.915
541.47	-1.018
541.81	-1.130
542.15	-1.278
542.49	-1.460
542.82	-1.673
543.16	-1.899
543.50	-2.146
543.84	-2.383
544.17	-2.595
544.51	-2.761
544.85	-2.939
545.18	-3.096
545.52	-3.276
545.86	-3.466
546.20	-3.677
546.53	-3.867
546.87	-4.089
547.21	-4.304
547.54	-4.516
547.88	-4.732
548.22	-4.948
548.55	-5.102
548.89	-5.222
549.23	-5.320
549.56	-5.388
549.90	-5.395
550.24	-5.380
550.57	-5.344
550.91	-5.304
551.25	-5.293
551.58	-5.271
551.92	-5.264
552.26	-5.309
552.59	-5.362
552.93	-5.442
553.27	-5.520
553.60	-5.600
553.94	-5.690
554.27	-5.746
554.61	-5.817
554.95	-5.877
555.28	-5.932
555.62	-5.967
555.95	-5.956
556.29	-5.949
556.63	-5.907
556.96	-5.872
557.30	-5.823
557.63	-5.803
557.97	-5.779
558.31	-5.755
558.64	-5.742
558.98	-5.711
559.31	-5.680
559.65	-5.676
559.98	-5.649
560.32	-5.613
560.65	-5.574
560.99	-5.508
561.33	-5.421
561.66	-5.329
562.00	-5.215
562.33	-5.051
562.67	-4.940
563.00	-4.812
563.34	-4.659
563.67	-4.516
564.01	-4.410
564.34	-4.287
564.68	-4.201
565.01	-4.129
565.35	-4.093
565.68	-4.070
566.02	-4.091
566.35	-4.058
566.69	-4.050
567.02	-4.043
567.36	-4.021
567.69	-3.987
568.03	-3.968
568.36	-3.934
568.69	-3.888
569.03	-3.796
569.36	-3.723
569.70	-3.618
570.03	-3.531
570.37	-3.469
570.70	-3.420
571.04	-3.385
571.37	-3.328
571.70	-3.297
572.04	-3.294
572.37	-3.305
572.71	-3.336
573.04	-3.347
573.37	-3.373
573.71	-3.435
574.04	-3.480
574.38	-3.554
574.71	-3.637
575.04	-3.769
575.38	-3.861
575.71	-3.956
576.05	-4.049
576.38	-4.149
576.71	-4.259
577.05	-4.406
577.38	-4.509
577.71	-4.607
578.05	-4.702
578.38	-4.805
578.71	-4.882
579.05	-4.935
579.38	-4.979
579.71	-5.024
580.05	-5.069
580.38	-5.073
580.71	-5.102
581.05	-5.133
581.38	-5.126
581.71	-5.098
582.05	-5.081
582.38	-5.033
582.71	-5.011
583.04	-4.983
583.38	-4.985
583.71	-4.922
584.04	-4.878
584.38	-4.791
584.71	-4.688
585.04	-4.606
585.37	-4.541
585.71	-4.402
586.04	-4.271
586.37	-4.156
586.70	-4.055
587.04	-3.928
587.37	-3.838
587.70	-3.784
588.03	-3.682
588.37	-3.644
588.70	-3.632
589.03	-3.573
589.36	-3.594
589.69	-3.616
590.03	-3.653
590.36	-3.648
590.69	-3.630
591.02	-3.637
591.35	-3.620
591.69	-3.619
592.02	-3.551
592.35	-3.447
592.68	-3.381
593.01	-3.234
593.35	-3.131
593.68	-3.011
594.01	-2.926
594.34	-2.849
594.67	-2.796
595.00	-2.725
595.34	-2.680
595.67	-2.687
596.00	-2.715
596.33	-2.771
596.66	-2.887
596.99	-2.992
597.32	-3.123
597.65	-3.227
597.99	-3.337
598.32	-3.421
598.65	-3.492
598.98	-3.551
599.31	-3.541
599.64	-3.519
599.97	-3.378
600.30	-3.211
600.63	-3.062
600.96	-2.920
601.30	-2.783
601.63	-2.634
601.96	-2.514
602.29	-2.429
602.62	-2.349
602.95	-2.282
603.28	-2.235
603.61	-2.268
603.94	-2.319
604.27	-2.368
604.60	-2.392
604.93	-2.441
605.26	-2.463
605.59	-2.514
605.92	-2.530
606.25	-2.561
606.58	-2.598
606.91	-2.604
607.24	-2.595
607.57	-2.554
607.90	-2.523
608.23	-2.518
608.56	-2.541
608.89	-2.612
609.22	-2.668
609.55	-2.757
609.88	-2.830
610.21	-2.934
610.54	-3.050
610.87	-3.185
611.20	-3.348
611.53	-3.476
611.86	-3.598
612.19	-3.670
612.52	-3.780
612.85	-3.795
613.18	-3.792
613.51	-3.847
613.84	-3.843
614.17	-3.862
614.49	-3.809
614.82	-3.797
615.15	-3.815
615.48	-3.806
615.81	-3.810
616.14	-3.786
616.47	-3.785
616.80	-3.816
617.13	-3.780
617.46	-3.797
617.78	-3.784
618.11	-3.821
618.44	-3.830
618.77	-3.810
619.10	-3.798
619.43	-3.811
619.76	-3.784
620.09	-3.772
620.41	-3.745
620.74	-3.702
621.07	-3.693
621.40	-3.636
621.73	-3.562
622.06	-3.505
622.38	-3.432
622.71	-3.384
623.04	-3.281
623.37	-3.201
623.70	-3.091
624.02	-3.010
624.35	-2.931
624.68	-2.834
625.01	-2.778
625.34	-2.737
625.66	-2.701
625.99	-2.678
626.32	-2.639
626.65	-2.652
626.98	-2.657
627.30	-2.715
627.63	-2.788
627.96	-2.896
628.29	-2.963
628.61	-3.046
628.94	-3.129
629.27	-3.154
629.60	-3.202
629.92	-3.265
630.25	-3.295
630.58	-3.352
630.91	-3.357
631.23	-3.357
631.56	-3.370
631.89	-3.371
632.21	-3.338
632.54	-3.374
632.87	-3.376
633.19	-3.390
633.52	-3.422
633.85	-3.471
634.18	-3.511
634.50	-3.552
634.83	-3.576
635.16	-3.584
635.48	-3.610
635.81	-3.712
636.14	-3.727
636.46	-3.826
636.79	-3.872
637.11	-3.925
637.44	-3.954
637.77	-3.958
638.09	-3.964
638.42	-3.992
638.75	-4.010
639.07	-4.091
639.40	-4.156
639.73	-4.191
640.05	-4.220
640.38	-4.279
640.70	-4.289
641.03	-4.260
641.36	-4.292
641.68	-4.353
642.01	-4.420
642.33	-4.414
642.66	-4.364
642.98	-4.267
643.31	-4.204
643.64	-4.149
643.96	-4.048
644.29	-3.957
644.61	-3.897
644.94	-3.809
645.26	-3.666
645.59	-3.540
645.91	-3.517
646.24	-3.439
646.56	-3.421
646.89	-3.405
647.22	-3.398
647.54	-3.376
647.87	-3.378
648.19	-3.418
648.52	-3.418
648.84	-3.493
649.17	-3.502
649.49	-3.527
649.82	-3.569
650.14	-3.548
650.47	-3.542
650.79	-3.499
651.11	-3.542
651.44	-3.532
651.76	-3.502
652.09	-3.520
652.41	-3.500
652.74	-3.463
653.06	-3.426
653.39	-3.394
653.71	-3.325
654.04	-3.248
654.36	-3.177
654.68	-3.078
655.01	-2.991
655.33	-2.891
655.66	-2.826
655.98	-2.777
656.30	-2.723
656.63	-2.650
656.95	-2.582
657.28	-2.566
657.60	-2.539
657.92	-2.540
658.25	-2.571
658.57	-2.636
658.90	-2.747
659.22	-2.795
659.54	-2.853
659.87	-2.972
660.19	-3.091
660.51	-3.207
660.84	-3.354
661.16	-3.567
661.48	-3.683
661.81	-3.799
662.13	-3.841
662.45	-3.857
662.78	-3.906
663.10	-3.952
663.42	-3.926
663.75	-3.900
664.07	-3.964
664.39	-3.927
664.72	-3.875
665.04	-3.923
665.36	-3.911
665.69	-3.894
666.01	-3.848
666.33	-3.801
666.65	-3.780
666.98	-3.830
667.30	-3.846
667.62	-3.737
667.94	-3.759
668.27	-3.755
668.59	-3.744
668.91	-3.699
669.23	-3.716
669.56	-3.790
669.88	-3.803
670.20	-3.843
670.52	-3.788
670.85	-3.732
671.17	-3.816
671.49	-3.803
671.81	-3.704
672.13	-3.687
672.46	-3.701
672.78	-3.687
673.10	-3.693
673.42	-3.683
673.74	-3.643
674.07	-3.655
674.39	-3.667
674.71	-3.555
675.03	-3.489
675.35	-3.433
675.67	-3.314
676.00	-3.256
676.32	-3.197
676.64	-3.047
676.96	-2.940
677.28	-2.818
677.60	-2.733
677.92	-2.592
678.25	-2.547
678.57	-2.489
678.89	-2.478
679.21	-2.470
679.53	-2.447
679.85	-2.391
680.17	-2.396
680.49	-2.408
680.81	-2.477
681.13	-2.521
681.46	-2.548
681.78	-2.548
682.10	-2.514
682.42	-2.542
682.74	-2.532
683.06	-2.490
683.38	-2.527
683.70	-2.478
684.02	-2.418
684.34	-2.310
684.66	-2.231
684.98	-2.153
685.30	-2.111
685.62	-2.115
685.94	-2.062
686.26	-2.033
686.58	-2.007
686.90	-1.990
687.22	-1.996
687.54	-2.055
687.86	-2.156
688.18	-2.204
688.50	-2.334
688.82	-2.472
689.14	-2.630
689.46	-2.732
689.78	-2.826
690.10	-2.945
690.42	-3.090
690.74	-3.255
691.06	-3.347
691.38	-3.380
691.70	-3.470
692.02	-3.565
692.34	-3.644
692.66	-3.707
692.98	-3.709
693.30	-3.681
693.62	-3.725
693.94	-3.627
694.26	-3.515
694.57	-3.454
694.89	-3.373
695.21	-3.197
695.53	-3.058
695.85	-2.919
696.17	-2.750
696.49	-2.647
696.81	-2.609
697.13	-2.495
697.44	-2.446
697.76	-2.468
698.08	-2.494
698.40	-2.558
698.72	-2.724
699.04	-2.895
699.36	-3.065
699.67	-3.362
699.99	-3.707
700.31	-3.989
700.63	-4.371
700.95	-4.768
701.27	-5.138
701.58	-5.514
701.90	-5.823
702.22	-6.093
702.54	-6.318
702.86	-6.494
703.17	-6.636
703.49	-6.808
703.81	-6.905
704.13	-6.998
704.45	-6.983
704.76	-7.046
705.08	-6.971
705.40	-7.061
705.72	-6.969
706.03	-7.010
706.35	-6.974
706.67	-6.881
706.99	-6.681
707.30	-6.710
707.62	-6.677
707.94	-6.620
708.26	-6.539
708.57	-6.596
708.89	-6.506
709.21	-6.625
709.53	-6.627
709.84	-6.636
710.16	-6.713
710.48	-6.732
710.79	-6.735
711.11	-6.653
711.43	-6.695
711.74	-6.678
712.06	-6.688
712.38	-6.572
712.69	-6.527
713.01	-6.465
713.33	-6.414
713.64	-6.287
713.96	-6.222
714.28	-6.134
714.59	-6.046
714.91	-5.936
715.23	-5.952
715.54	-5.814
715.86	-5.893
716.17	-5.756
716.49	-5.730
716.81	-5.852
717.12	-5.899
717.44	-6.051
717.76	-6.293
718.07	-6.539
718.39	-6.860
718.70	-6.978
719.02	-7.262
719.33	-7.624
719.65	-7.971
719.97	-8.276
720.28	-8.371
720.60	-8.623
720.91	-8.888
721.23	-8.856
721.54	-8.935
721.86	-8.999
722.17	-9.001
722.49	-9.009
722.81	-8.925
723.12	-8.923
723.44	-8.763
723.75	-8.839
724.07	-8.733
724.38	-8.542
724.70	-8.517
725.01	-8.387
725.33	-8.431
725.64	-8.496
725.96	-8.415
726.27	-8.283
726.59	-8.082
726.90	-8.132
727.22	-8.017
727.53	-8.140
727.84	-8.249
728.16	-8.265
728.47	-8.451
728.79	-8.569
729.10	-8.680
729.42	-8.926
729.73	-9.155
730.05	-9.525
730.36	-9.716
730.67	-10.066
730.99	-10.262
731.30	-10.557
731.62	-10.855
731.93	-11.192
732.24	-11.378
732.56	-11.662
732.87	-11.973
733.19	-12.397
733.50	-12.794
733.81	-13.186
734.13	-13.366
734.44	-13.720
734.76	-14.072
735.07	-14.456
735.38	-14.503
735.70	-14.698
736.01	-14.860
736.32	-14.912
736.64	-14.935
736.95	-14.967
737.26	-15.088
737.58	-15.398
737.89	-15.368
738.20	-15.566
738.52	-15.902
738.83	-16.129
739.14	-16.338
739.45	-16.824
739.77	-17.262
740.08	-17.784
740.39	-18.173
740.71	-18.401
741.02	-18.589
741.33	-19.144
741.64	-19.243
741.96	-19.302
742.27	-19.951
742.58	-20.388
742.90	-20.746
743.21	-21.177
743.52	-21.379
743.83	-21.313
744.14	-21.623
744.46	-22.051
744.77	-22.284
745.08	-22.693
745.39	-22.992
745.71	-23.052
746.02	-23.056
746.33	-22.900
746.64	-22.792
746.95	-22.772
747.27	-23.196
747.58	-23.508
747.89	-23.412
748.20	-23.409
748.51	-23.559
748.82	-23.443
749.14	-23.432
749.45	-23.908
749.76	-24.041
750.07	-24.078
750.38	-24.282
750.69	-24.391
751.01	-24.303
751.32	-24.581
751.63	-24.787
751.94	-24.902
752.25	-25.193
752.56	-25.451
752.87	-25.572
753.18	-25.804
753.49	-26.088
753.81	-25.922
754.12	-25.664
754.43	-25.561
754.74	-25.299
755.05	-24.835
755.36	-23.988
755.67	-23.040
755.98	-22.096
756.29	-20.739
756.60	-19.275
756.91	-17.858
757.22	-16.664
757.53	-15.239
757.84	-13.664
758.15	-12.113
758.46	-10.531
758.77	-9.282
759.09	-8.315
759.40	-7.366
759.71	-6.583
760.02	-6.007
760.33	-5.579
760.64	-5.379
760.95	-5.328
761.26	-5.304
761.57	-5.449
761.88	-5.771
762.18	-6.148
762.49	-6.480
762.80	-6.942
763.11	-7.558
763.42	-8.284
763.73	-9.155
764.04	-10.070
764.35	-11.151
764.66	-12.599
764.97	-13.944
765.28	-15.328
765.59	-16.907
765.90	-18.845
766.21	-20.874
766.52	-22.564
766.83	-24.245
767.14	-25.761
767.44	-26.994
767.75	-28.660
768.06	-29.804
768.37	-30.654
768.68	-31.882
768.99	-32.891
769.30	-33.764
769.61	-34.124
769.91	-34.841
770.22	-35.672
770.53	-36.260
770.84	-36.717
771.15	-37.146
771.46	-37.480
771.77	-38.290
772.07	-38.415
772.38	-39.003
772.69	-38.970
773.00	-39.141
773.31	-39.656
773.61	-39.691
773.92	-39.434
774.23	-39.860
774.54	-39.767
774.85	-39.989
775.15	-40.270
775.46	-40.485
775.77	-39.842
776.08	-39.984
776.39	-40.290
776.69	-39.868
777.00	-39.850
777.31	-40.037
777.62	-39.853
777.92	-39.832
778.23	-39.631
778.54	-39.705
778.85	-40.152
779.15	-40.973
779.46	-40.716
779.77	-40.464
780.07	-40.856
780.38	-41.415
780.69	-41.635
781.00	-41.616
781.30	-41.251
781.61	-41.709
781.92	-41.002
782.22	-41.131
782.53	-41.298
782.84	-41.772
783.14	-41.520
783.45	-41.157
783.76	-40.547
784.06	-40.388
784.37	-39.521
784.68	-39.056
784.98	-38.260
785.29	-37.703
785.60	-36.448
785.90	-34.546
786.21	-33.129
786.51	-32.808
786.82	-32.060
787.13	-31.611
787.43	-30.791
787.74	-30.734
788.04	-30.813
788.35	-30.751
788.66	-30.739
788.96	-31.010
789.27	-31.528
789.57	-32.134
789.88	-32.532
790.19	-33.275
790.49	-33.602
790.80	-34.231
791.10	-34.597
791.41	-34.882
791.71	-34.566
792.02	-34.639
792.32	-34.296
792.63	-34.672
792.93	-34.771
793.24	-34.416
793.54	-33.998
793.85	-33.462
794.15	-32.972
794.46	-32.775
794.76	-32.340
795.07	-32.423
795.37	-32.317
795.68	-32.269
795.98	-32.242
796.29	-32.255
796.59	-32.145
796.90	-32.058
797.20	-32.304
797.51	-32.685
797.81	-33.194
798.12	-33.186
798.42	-33.052
798.72	-33.272
799.03	-33.650
799.33	-33.990
799.64	-34.264
799.94	-34.472
800.25	-35.094
800.55	-35.649
800.85	-35.977
801.16	-35.607
801.46	-36.237
801.77	-36.430
802.07	-36.732
802.37	-37.136
802.68	-36.859
802.98	-36.892
803.28	-37.163
803.59	-36.935
803.89	-36.882
804.20	-36.937
804.50	-37.453
804.80	-36.856
805.11	-37.053
805.41	-37.745
805.71	-37.606
806.02	-37.741
806.32	-37.837
806.62	-38.254
806.93	-39.072
807.23	-39.050
807.53	-39.020
807.83	-39.273
808.14	-39.804
808.44	-40.576
808.74	-38.861
809.05	-38.656
809.35	-38.828
809.65	-38.794
809.95	-37.702
810.26	-37.154
810.56	-35.942
810.86	-35.341
811.16	-34.698
811.47	-34.440
811.77	-32.686
812.07	-32.386
812.37	-31.749
812.68	-29.842
812.98	-27.881
813.28	-26.911
813.58	-24.854
813.88	-24.987
814.19	-24.082
814.49	-23.283
814.79	-22.414
815.09	-21.530
815.39	-21.400
815.70	-21.149
816.00	-21.045
816.30	-20.868
816.60	-20.258
816.90	-19.381
817.20	-17.312
817.50	-14.977
817.81	-11.932
818.11	-9.208
818.41	-7.102
818.71	-5.189
819.01	-3.607
819.31	-2.406
819.61	-1.539
819.92	-0.771
820.22	-0.239
820.52	0.119
820.82	0.445
821.12	0.591
821.42	0.837
821.72	0.983
822.02	1.061
822.32	1.082
822.62	1.003
822.92	0.929
823.22	0.728
823.52	0.554
823.83	0.373
824.13	0.124
824.43	-0.194
824.73	-0.714
825.03	-1.216
825.33	-1.677
825.63	-2.077
825.93	-2.374
826.23	-2.795
826.53	-2.997
826.83	-3.405
827.13	-3.727
827.43	-4.336
827.73	-4.795
828.03	-5.513
828.33	-6.245
828.63	-7.118
828.93	-8.021
829.23	-9.432
829.53	-10.083
829.83	-11.578
830.13	-12.081
830.42	-12.619
830.72	-12.438
831.02	-12.038
831.32	-11.460
831.62	-11.088
831.92	-10.566
832.22	-10.271
832.52	-9.406
832.82	-9.510
833.12	-8.945
833.42	-9.102
833.72	-9.343
834.01	-9.750
834.31	-10.356
834.61	-11.276
834.91	-12.397
835.21	-13.594
835.51	-14.856
835.81	-16.735
836.11	-18.267
836.40	-20.474
836.70	-22.653
837.00	-24.499
837.30	-26.190
837.60	-28.170
837.90	-29.015
838.19	-29.364
838.49	-30.696
838.79	-32.054
839.09	-33.358
839.39	-34.805
839.68	-35.477
839.98	-37.203
840.28	-39.002
840.58	-41.534
840.88	-43.895
841.17	-46.716
841.47	-51.174
841.77	-54.015
842.07	-56.450
842.36	-61.746
842.66	-64.511
842.96	-70.863
843.26	-77.451
843.55	-83.076
843.85	-83.847
844.15	-86.990
844.45	-91.493
844.74	-91.207
845.04	-95.365
845.34	-97.139
845.63	-95.501
845.93	-102.169
846.23	-101.048
846.53	-99.566
846.82	-98.840
847.12	-101.728
847.42	-103.176
847.71	-104.297
848.01	-107.869
848.31	-110.988
848.60	-117.732
848.90	-116.248
849.19	-117.617
849.49	-119.558
849.79	-116.507
850.08	-110.018
850.38	-108.776
850.68	-108.498
850.97	-105.289
851.27	-101.195
851.56	-100.120
851.86	-95.088
852.16	-99.130
852.45	-93.290
852.75	-87.566
853.04	-87.791
853.34	-93.492
853.64	-96.754
853.93	-97.375
854.23	-93.493
854.52	-95.513
854.82	-89.945
855.11	-90.055
855.41	-88.691
855.70	-89.644
856.00	-92.595
856.30	-95.374
856.59	-96.242
856.89	-96.575
857.18	-91.850
857.48	-95.265
857.77	-96.521
858.07	-93.794
858.36	-96.445
858.66	-98.010
858.95	-96.965
859.25	-100.955
859.54	-100.386
859.84	-95.137
860.13	-89.297
860.42	-93.902
860.72	-90.273
861.01	-91.833
861.31	-93.587
861.60	-93.230
861.90	-88.319
862.19	-91.769
862.49	-84.144
862.78	-76.790
863.07	-76.277
863.37	-78.422
863.66	-72.971
863.96	-74.866
864.25	-69.760
864.54	-70.594
864.84	-67.349
865.13	-67.322
865.43	-65.535
865.72	-66.589
866.01	-73.063
866.31	-71.949
866.60	-84.365
866.89	-101.825
>>>>>End Spectral Data<<<<<
