OOIBase32 Version 2.0.0.6 Data File
++++++++++++++++++++++++++++++++++++
Date: 01-20-2012, 22:23:13
User: Valued Ocean Optics Customer
Spectrometer Serial Number: USB2E2917
Spectrometer Channel: Master
Integration Time (msec): 4
Spectra Averaged: 10
Boxcar Smoothing: 5
Correct for Electrical Dark: Enabled
Time Normalized: Disabled
Dual-beam Reference: Disabled
Reference Channel: Master
Temperature: Not acquired
Spectrometer Type: S2000
ADC Type: USB2000
Number of Pixels in File: 2048
Graph Title: 
>>>>>Begin Spectral Data<<<<<
180.30	0.000
180.67	0.000
181.03	530.948
181.40	6.289
181.77	19.523
182.14	97.077
182.51	72.653
182.88	-57.970
183.25	14.062
183.62	59.045
183.99	18.968
184.36	39.552
184.73	192.548
185.10	356.937
185.46	-127.932
185.83	-103.435
186.20	-775.872
186.57	60.937
186.94	368.492
187.31	-125.075
187.68	-2399.886
188.05	291.600
188.42	110.764
188.78	93.035
189.15	52.116
189.52	27.025
189.89	-6.242
190.26	9.024
190.63	11.579
191.00	-9.574
191.37	-53.424
191.73	-53.481
192.10	-19.595
192.47	9.378
192.84	-38.147
193.21	-21.327
193.58	-37.144
193.94	-41.850
194.31	-17.598
194.68	8.500
195.05	14.278
195.42	31.568
195.79	28.823
196.15	15.217
196.52	5.265
196.89	22.751
197.26	32.438
197.63	49.037
198.00	51.849
198.36	25.054
198.73	21.246
199.10	23.556
199.47	28.296
199.84	21.368
200.20	17.909
200.57	16.603
200.94	1.360
201.31	-5.305
201.68	-14.074
202.04	-13.591
202.41	-12.269
202.78	-20.628
203.15	-33.350
203.51	-30.041
203.88	4.362
204.25	15.471
204.62	24.511
204.98	35.234
205.35	31.443
205.72	37.454
206.09	35.939
206.46	57.884
206.82	62.664
207.19	59.972
207.56	44.795
207.92	44.368
208.29	26.540
208.66	18.122
209.03	21.766
209.39	45.115
209.76	60.494
210.13	70.819
210.50	65.896
210.86	73.399
211.23	72.253
211.60	82.548
211.96	76.010
212.33	88.262
212.70	80.798
213.07	68.713
213.43	63.529
213.80	56.331
214.17	51.342
214.53	46.897
214.90	34.087
215.27	41.199
215.63	29.797
216.00	16.711
216.37	16.653
216.74	12.617
217.10	14.643
217.47	6.107
217.84	5.004
218.20	-0.300
218.57	1.210
218.94	7.626
219.30	7.924
219.67	15.784
220.04	22.070
220.40	23.475
220.77	22.478
221.13	21.450
221.50	24.302
221.87	23.795
222.23	24.064
222.60	23.884
222.97	27.753
223.33	29.766
223.70	26.662
224.07	28.071
224.43	24.213
224.80	24.174
225.16	24.222
225.53	22.452
225.90	21.942
226.26	21.306
226.63	20.253
226.99	18.827
227.36	17.846
227.73	17.455
228.09	16.666
228.46	17.572
228.82	17.373
229.19	16.445
229.56	17.724
229.92	16.793
230.29	16.904
230.65	18.542
231.02	18.961
231.38	18.653
231.75	19.152
232.12	20.434
232.48	19.969
232.85	19.802
233.21	19.914
233.58	18.733
233.94	19.142
234.31	17.923
234.68	15.870
235.04	15.782
235.41	15.133
235.77	15.746
236.14	14.612
236.50	13.560
236.87	14.338
237.23	14.174
237.60	14.468
237.96	14.879
238.33	15.451
238.69	15.665
239.06	15.262
239.42	15.740
239.79	15.769
240.15	15.523
240.52	15.174
240.88	15.246
241.25	15.227
241.61	15.020
241.98	14.700
242.34	14.406
242.71	14.094
243.07	14.118
243.44	13.783
243.80	13.706
244.17	13.732
244.53	13.806
244.90	13.497
245.26	13.426
245.63	13.399
245.99	13.415
246.36	13.500
246.72	13.313
247.09	13.122
247.45	12.995
247.81	12.614
248.18	12.416
248.54	12.226
248.91	12.010
249.27	11.906
249.64	12.072
250.00	12.156
250.36	12.027
250.73	12.016
251.09	11.924
251.46	12.013
251.82	12.075
252.19	12.098
252.55	12.377
252.91	12.559
253.28	12.540
253.64	11.814
254.01	11.710
254.37	11.548
254.73	11.721
255.10	12.002
255.46	11.810
255.83	11.928
256.19	12.039
256.55	11.983
256.92	12.203
257.28	12.310
257.65	12.360
258.01	12.092
258.37	11.875
258.74	11.883
259.10	11.784
259.46	11.922
259.83	11.874
260.19	11.807
260.55	11.767
260.92	11.687
261.28	11.836
261.64	11.723
262.01	11.703
262.37	11.813
262.73	11.556
263.10	11.406
263.46	11.484
263.82	11.575
264.19	11.419
264.55	11.475
264.91	11.445
265.28	11.087
265.64	11.461
266.00	11.647
266.37	11.843
266.73	12.193
267.09	12.334
267.46	12.063
267.82	12.127
268.18	12.193
268.54	12.181
268.91	11.838
269.27	11.887
269.63	11.660
270.00	11.587
270.36	11.495
270.72	11.094
271.08	10.977
271.45	10.790
271.81	10.672
272.17	10.742
272.53	10.768
272.90	11.006
273.26	10.817
273.62	10.851
273.98	10.913
274.35	11.004
274.71	11.232
275.07	11.067
275.43	11.036
275.80	10.946
276.16	10.784
276.52	10.716
276.88	10.333
277.25	10.347
277.61	10.271
277.97	10.168
278.33	10.109
278.69	10.125
279.06	10.260
279.42	10.369
279.78	10.319
280.14	10.486
280.50	10.492
280.87	10.496
281.23	10.400
281.59	10.293
281.95	10.270
282.31	10.133
282.68	10.260
283.04	10.319
283.40	10.481
283.76	10.561
284.12	10.484
284.48	10.270
284.85	10.281
285.21	10.401
285.57	10.355
285.93	10.345
286.29	10.359
286.65	10.177
287.02	10.159
287.38	9.992
287.74	9.954
288.10	9.909
288.46	9.910
288.82	10.064
289.18	10.006
289.54	10.182
289.91	10.235
290.27	10.216
290.63	10.515
290.99	10.534
291.35	10.528
291.71	10.547
292.07	10.829
292.43	11.112
292.79	11.208
293.16	11.435
293.52	11.523
293.88	11.687
294.24	11.901
294.60	11.962
294.96	12.067
295.32	12.372
295.68	12.412
296.04	12.371
296.40	12.507
296.76	12.530
297.12	12.602
297.49	12.747
297.85	12.929
298.21	13.099
298.57	13.360
298.93	13.725
299.29	14.097
299.65	14.405
300.01	14.724
300.37	15.031
300.73	15.351
301.09	15.544
301.45	15.803
301.81	16.031
302.17	16.245
302.53	16.263
302.89	16.385
303.25	16.284
303.61	16.476
303.97	16.503
304.33	16.606
304.69	16.752
305.05	16.979
305.41	17.009
305.77	16.978
306.13	17.046
306.49	17.091
306.85	17.096
307.21	17.236
307.57	17.297
307.93	17.416
308.29	17.337
308.65	17.413
309.01	17.415
309.37	17.559
309.73	17.638
310.09	17.663
310.45	17.782
310.81	17.769
311.17	17.695
311.53	17.660
311.89	17.628
312.25	17.748
312.61	17.796
312.96	17.829
313.32	17.742
313.68	17.709
314.04	17.711
314.40	17.671
314.76	17.805
315.12	17.852
315.48	17.851
315.84	17.989
316.20	17.805
316.56	17.704
316.92	17.617
317.27	17.525
317.63	17.585
317.99	17.588
318.35	17.594
318.71	17.566
319.07	17.633
319.43	17.675
319.79	17.571
320.15	17.561
320.50	17.643
320.86	17.577
321.22	17.573
321.58	17.396
321.94	17.336
322.30	17.121
322.66	17.007
323.01	16.954
323.37	16.941
323.73	16.869
324.09	16.920
324.45	16.858
324.81	16.975
325.17	16.936
325.52	17.029
325.88	16.913
326.24	16.947
326.60	16.919
326.96	16.892
327.31	16.714
327.67	16.726
328.03	16.687
328.39	16.609
328.75	16.483
329.11	16.485
329.46	16.483
329.82	16.567
330.18	16.591
330.54	16.463
330.90	16.331
331.25	16.233
331.61	16.115
331.97	16.066
332.33	16.047
332.68	15.993
333.04	15.934
333.40	15.847
333.76	15.732
334.11	15.592
334.47	15.667
334.83	15.673
335.19	15.784
335.54	15.833
335.90	15.919
336.26	15.825
336.62	15.811
336.97	15.756
337.33	15.725
337.69	15.648
338.05	15.706
338.40	15.704
338.76	15.638
339.12	15.600
339.48	15.485
339.83	15.378
340.19	15.348
340.55	15.325
340.90	15.299
341.26	15.263
341.62	15.313
341.97	15.301
342.33	15.174
342.69	15.217
343.04	15.134
343.40	15.075
343.76	15.085
344.12	14.994
344.47	14.949
344.83	14.967
345.19	14.879
345.54	14.794
345.90	14.727
346.26	14.742
346.61	14.612
346.97	14.678
347.32	14.711
347.68	14.581
348.04	14.666
348.39	14.612
348.75	14.564
349.11	14.559
349.46	14.509
349.82	14.467
350.18	14.410
350.53	14.429
350.89	14.361
351.24	14.311
351.60	14.288
351.96	14.176
352.31	14.177
352.67	14.127
353.02	14.081
353.38	14.084
353.74	14.096
354.09	14.004
354.45	14.029
354.80	14.012
355.16	14.054
355.52	14.049
355.87	14.046
356.23	13.988
356.58	13.949
356.94	13.942
357.29	13.962
357.65	13.951
358.00	13.992
358.36	13.920
358.72	13.840
359.07	13.696
359.43	13.637
359.78	13.596
360.14	13.588
360.49	13.567
360.85	13.516
361.20	13.451
361.56	13.364
361.91	13.270
362.27	13.222
362.62	13.147
362.98	13.109
363.33	13.039
363.69	13.051
364.04	12.967
364.40	12.890
364.75	12.893
365.11	12.847
365.46	12.793
365.82	12.792
366.17	12.724
366.53	12.732
366.88	12.736
367.24	12.740
367.59	12.587
367.95	12.537
368.30	12.546
368.66	12.481
369.01	12.483
369.37	12.502
369.72	12.531
370.08	12.555
370.43	12.550
370.78	12.543
371.14	12.597
371.49	12.617
371.85	12.613
372.20	12.565
372.56	12.557
372.91	12.472
373.26	12.437
373.62	12.374
373.97	12.309
374.33	12.289
374.68	12.267
375.03	12.168
375.39	12.180
375.74	12.175
376.10	12.172
376.45	12.120
376.80	12.135
377.16	12.108
377.51	12.081
377.87	12.065
378.22	12.040
378.57	12.035
378.93	12.049
379.28	12.073
379.63	12.109
379.99	12.119
380.34	12.133
380.70	12.192
381.05	12.176
381.40	12.230
381.76	12.251
382.11	12.249
382.46	12.264
382.82	12.267
383.17	12.257
383.52	12.192
383.88	12.135
384.23	12.109
384.58	12.048
384.94	12.004
385.29	11.890
385.64	11.881
385.99	11.901
386.35	11.814
386.70	11.739
387.05	11.679
387.41	11.632
387.76	11.680
388.11	11.688
388.47	11.670
388.82	11.695
389.17	11.715
389.52	11.706
389.88	11.637
390.23	11.659
390.58	11.682
390.93	11.682
391.29	11.703
391.64	11.647
391.99	11.646
392.34	11.625
392.70	11.577
393.05	11.545
393.40	11.503
393.75	11.458
394.11	11.404
394.46	11.346
394.81	11.312
395.16	11.306
395.52	11.228
395.87	11.126
396.22	11.018
396.57	10.997
396.92	10.919
397.28	10.860
397.63	10.819
397.98	10.752
398.33	10.682
398.68	10.608
399.04	10.522
399.39	10.467
399.74	10.415
400.09	10.421
400.44	10.367
400.80	10.377
401.15	10.360
401.50	10.332
401.85	10.347
402.20	10.362
402.55	10.359
402.90	10.329
403.26	10.332
403.61	10.353
403.96	10.350
404.31	10.324
404.66	10.287
405.01	10.233
405.36	10.177
405.72	10.142
406.07	10.085
406.42	10.067
406.77	10.065
407.12	10.055
407.47	10.032
407.82	9.984
408.17	9.985
408.53	9.991
408.88	9.959
409.23	9.969
409.58	9.934
409.93	9.907
410.28	9.877
410.63	9.827
410.98	9.776
411.33	9.721
411.68	9.725
412.03	9.708
412.38	9.683
412.73	9.718
413.09	9.743
413.44	9.745
413.79	9.789
414.14	9.808
414.49	9.831
414.84	9.867
415.19	9.906
415.54	9.930
415.89	9.961
416.24	9.991
416.59	10.017
416.94	10.023
417.29	10.057
417.64	10.070
417.99	10.084
418.34	10.110
418.69	10.117
419.04	10.127
419.39	10.127
419.74	10.147
420.09	10.142
420.44	10.138
420.79	10.137
421.14	10.132
421.49	10.130
421.84	10.102
422.19	10.093
422.54	10.102
422.89	10.088
423.24	10.058
423.59	10.023
423.94	10.004
424.29	9.969
424.64	9.948
424.99	9.911
425.34	9.868
425.68	9.846
426.03	9.798
426.38	9.731
426.73	9.686
427.08	9.668
427.43	9.600
427.78	9.592
428.13	9.608
428.48	9.593
428.83	9.578
429.18	9.564
429.53	9.560
429.87	9.551
430.22	9.543
430.57	9.555
430.92	9.545
431.27	9.561
431.62	9.538
431.97	9.481
432.32	9.468
432.67	9.451
433.01	9.441
433.36	9.408
433.71	9.392
434.06	9.357
434.41	9.318
434.76	9.319
435.11	9.318
435.45	9.319
435.80	9.344
436.15	9.343
436.50	9.359
436.85	9.377
437.20	9.413
437.54	9.435
437.89	9.469
438.24	9.498
438.59	9.501
438.94	9.473
439.29	9.463
439.63	9.457
439.98	9.430
440.33	9.429
440.68	9.416
441.03	9.385
441.37	9.353
441.72	9.372
442.07	9.377
442.42	9.369
442.76	9.400
443.11	9.417
443.46	9.437
443.81	9.461
444.16	9.455
444.50	9.470
444.85	9.467
445.20	9.466
445.55	9.404
445.89	9.354
446.24	9.313
446.59	9.267
446.94	9.223
447.28	9.143
447.63	9.074
447.98	9.023
448.32	8.945
448.67	8.895
449.02	8.838
449.37	8.813
449.71	8.787
450.06	8.789
450.41	8.783
450.75	8.768
451.10	8.790
451.45	8.790
451.79	8.755
452.14	8.738
452.49	8.731
452.84	8.746
453.18	8.739
453.53	8.741
453.88	8.731
454.22	8.726
454.57	8.737
454.92	8.743
455.26	8.773
455.61	8.838
455.95	8.865
456.30	8.920
456.65	8.935
456.99	8.970
457.34	8.992
457.69	9.007
458.03	9.019
458.38	9.003
458.73	8.987
459.07	8.966
459.42	8.923
459.76	8.898
460.11	8.835
460.46	8.777
460.80	8.749
461.15	8.678
461.49	8.623
461.84	8.563
462.19	8.519
462.53	8.507
462.88	8.481
463.22	8.433
463.57	8.411
463.91	8.414
464.26	8.418
464.61	8.396
464.95	8.408
465.30	8.416
465.64	8.406
465.99	8.407
466.33	8.364
466.68	8.360
467.02	8.364
467.37	8.345
467.71	8.312
468.06	8.326
468.41	8.312
468.75	8.286
469.10	8.247
469.44	8.239
469.79	8.206
470.13	8.174
470.48	8.116
470.82	8.097
471.17	8.072
471.51	8.041
471.86	7.988
472.20	7.950
472.55	7.929
472.89	7.906
473.23	7.866
473.58	7.851
473.92	7.873
474.27	7.886
474.61	7.891
474.96	7.901
475.30	7.907
475.65	7.892
475.99	7.895
476.34	7.896
476.68	7.906
477.02	7.917
477.37	7.945
477.71	7.973
478.06	8.018
478.40	8.104
478.75	8.240
479.09	8.405
479.43	8.591
479.78	8.783
480.12	8.985
480.47	9.182
480.81	9.392
481.15	9.585
481.50	9.789
481.84	10.005
482.19	10.240
482.53	10.428
482.87	10.560
483.22	10.583
483.56	10.498
483.90	10.346
484.25	10.153
484.59	9.918
484.94	9.729
485.28	9.554
485.62	9.343
485.97	9.090
486.31	8.865
486.65	8.684
487.00	8.591
487.34	8.577
487.68	8.610
488.03	8.675
488.37	8.759
488.71	8.779
489.06	8.746
489.40	8.696
489.74	8.658
490.09	8.614
490.43	8.547
490.77	8.493
491.11	8.440
491.46	8.378
491.80	8.289
492.14	8.206
492.49	8.134
492.83	8.033
493.17	7.953
493.51	7.860
493.86	7.766
494.20	7.720
494.54	7.669
494.88	7.637
495.23	7.635
495.57	7.649
495.91	7.661
496.25	7.624
496.60	7.637
496.94	7.644
497.28	7.625
497.62	7.601
497.97	7.567
498.31	7.531
498.65	7.526
498.99	7.511
499.33	7.488
499.68	7.443
500.02	7.449
500.36	7.421
500.70	7.401
501.04	7.384
501.39	7.368
501.73	7.363
502.07	7.366
502.41	7.347
502.75	7.310
503.09	7.311
503.44	7.333
503.78	7.327
504.12	7.348
504.46	7.349
504.80	7.377
505.14	7.413
505.49	7.444
505.83	7.457
506.17	7.467
506.51	7.507
506.85	7.508
507.19	7.514
507.53	7.537
507.87	7.523
508.22	7.534
508.56	7.514
508.90	7.510
509.24	7.493
509.58	7.492
509.92	7.492
510.26	7.469
510.60	7.449
510.94	7.439
511.28	7.423
511.63	7.418
511.97	7.409
512.31	7.417
512.65	7.399
512.99	7.409
513.33	7.428
513.67	7.451
514.01	7.467
514.35	7.519
514.69	7.550
515.03	7.582
515.37	7.622
515.71	7.666
516.05	7.693
516.39	7.731
516.73	7.744
517.07	7.763
517.41	7.753
517.75	7.758
518.09	7.722
518.43	7.713
518.77	7.674
519.11	7.644
519.45	7.608
519.79	7.596
520.13	7.556
520.47	7.528
520.81	7.496
521.15	7.500
521.49	7.497
521.83	7.522
522.17	7.525
522.51	7.584
522.85	7.638
523.19	7.722
523.53	7.821
523.87	7.968
524.21	8.086
524.55	8.214
524.89	8.316
525.23	8.411
525.57	8.485
525.91	8.556
526.25	8.614
526.58	8.663
526.92	8.701
527.26	8.713
527.60	8.693
527.94	8.681
528.28	8.643
528.62	8.615
528.96	8.575
529.30	8.531
529.64	8.487
529.97	8.428
530.31	8.375
530.65	8.302
530.99	8.254
531.33	8.228
531.67	8.204
532.01	8.192
532.35	8.170
532.68	8.139
533.02	8.121
533.36	8.086
533.70	8.052
534.04	8.026
534.38	8.010
534.71	7.984
535.05	7.944
535.39	7.902
535.73	7.855
536.07	7.829
536.41	7.835
536.74	7.857
537.08	7.883
537.42	7.927
537.76	7.971
538.10	8.007
538.43	8.049
538.77	8.078
539.11	8.120
539.45	8.156
539.79	8.173
540.12	8.194
540.46	8.196
540.80	8.198
541.14	8.194
541.47	8.165
541.81	8.133
542.15	8.084
542.49	8.058
542.82	8.003
543.16	7.956
543.50	7.896
543.84	7.838
544.17	7.806
544.51	7.755
544.85	7.699
545.18	7.677
545.52	7.658
545.86	7.641
546.20	7.601
546.53	7.571
546.87	7.517
547.21	7.476
547.54	7.429
547.88	7.377
548.22	7.351
548.55	7.366
548.89	7.311
549.23	7.288
549.56	7.282
549.90	7.251
550.24	7.241
550.57	7.279
550.91	7.303
551.25	7.314
551.58	7.310
551.92	7.306
552.26	7.256
552.59	7.247
552.93	7.243
553.27	7.224
553.60	7.232
553.94	7.218
554.27	7.172
554.61	7.156
554.95	7.131
555.28	7.109
555.62	7.100
555.95	7.085
556.29	7.094
556.63	7.072
556.96	7.083
557.30	7.093
557.63	7.093
557.97	7.108
558.31	7.109
558.64	7.124
558.98	7.114
559.31	7.107
559.65	7.154
559.98	7.173
560.32	7.197
560.65	7.180
560.99	7.191
561.33	7.209
561.66	7.220
562.00	7.255
562.33	7.277
562.67	7.306
563.00	7.341
563.34	7.354
563.67	7.357
564.01	7.364
564.34	7.382
564.68	7.402
565.01	7.433
565.35	7.428
565.68	7.401
566.02	7.376
566.35	7.400
566.69	7.405
567.02	7.390
567.36	7.401
567.69	7.399
568.03	7.402
568.36	7.370
568.69	7.345
569.03	7.365
569.36	7.380
569.70	7.411
570.03	7.422
570.37	7.425
570.70	7.452
571.04	7.449
571.37	7.442
571.70	7.437
572.04	7.441
572.37	7.448
572.71	7.436
573.04	7.425
573.37	7.409
573.71	7.393
574.04	7.373
574.38	7.334
574.71	7.331
575.04	7.340
575.38	7.340
575.71	7.340
576.05	7.304
576.38	7.276
576.71	7.281
577.05	7.277
577.38	7.282
577.71	7.253
578.05	7.248
578.38	7.201
578.71	7.157
579.05	7.148
579.38	7.132
579.71	7.124
580.05	7.139
580.38	7.117
580.71	7.098
581.05	7.065
581.38	7.073
581.71	7.066
582.05	7.084
582.38	7.129
582.71	7.123
583.04	7.128
583.38	7.141
583.71	7.143
584.04	7.183
584.38	7.213
584.71	7.215
585.04	7.249
585.37	7.281
585.71	7.299
586.04	7.287
586.37	7.306
586.70	7.327
587.04	7.374
587.37	7.388
587.70	7.377
588.03	7.366
588.37	7.374
588.70	7.350
589.03	7.352
589.36	7.339
589.69	7.333
590.03	7.331
590.36	7.310
590.69	7.284
591.02	7.268
591.35	7.271
591.69	7.272
592.02	7.295
592.35	7.313
592.68	7.333
593.01	7.352
593.35	7.396
593.68	7.412
594.01	7.434
594.34	7.424
594.67	7.432
595.00	7.408
595.34	7.412
595.67	7.389
596.00	7.373
596.33	7.343
596.66	7.328
596.99	7.286
597.32	7.264
597.65	7.255
597.99	7.258
598.32	7.236
598.65	7.224
598.98	7.225
599.31	7.207
599.64	7.215
599.97	7.203
600.30	7.232
600.63	7.235
600.96	7.251
601.30	7.257
601.63	7.276
601.96	7.324
602.29	7.367
602.62	7.376
602.95	7.412
603.28	7.412
603.61	7.425
603.94	7.399
604.27	7.405
604.60	7.378
604.93	7.341
605.26	7.315
605.59	7.276
605.92	7.249
606.25	7.219
606.58	7.161
606.91	7.173
607.24	7.161
607.57	7.189
607.90	7.183
608.23	7.167
608.56	7.201
608.89	7.174
609.22	7.184
609.55	7.154
609.88	7.143
610.21	7.149
610.54	7.128
610.87	7.095
611.20	7.028
611.53	6.985
611.86	6.993
612.19	6.951
612.52	6.971
612.85	6.958
613.18	6.947
613.51	6.944
613.84	6.957
614.17	6.929
614.49	6.957
614.82	7.012
615.15	7.020
615.48	6.994
615.81	6.983
616.14	6.996
616.47	6.959
616.80	6.982
617.13	6.977
617.46	6.985
617.78	7.000
618.11	6.971
618.44	6.916
618.77	6.908
619.10	6.940
619.43	6.936
619.76	6.914
620.09	6.918
620.41	6.891
620.74	6.902
621.07	6.883
621.40	6.890
621.73	6.913
622.06	6.944
622.38	6.976
622.71	6.990
623.04	7.026
623.37	7.024
623.70	7.035
624.02	7.090
624.35	7.070
624.68	7.090
625.01	7.094
625.34	7.081
625.66	7.057
625.99	7.055
626.32	7.014
626.65	7.009
626.98	7.019
627.30	6.996
627.63	6.962
627.96	6.971
628.29	6.931
628.61	6.893
628.94	6.899
629.27	6.915
629.60	6.890
629.92	6.879
630.25	6.850
630.58	6.816
630.91	6.829
631.23	6.829
631.56	6.798
631.89	6.817
632.21	6.845
632.54	6.836
632.87	6.812
633.19	6.843
633.52	6.857
633.85	6.824
634.18	6.818
634.50	6.791
634.83	6.739
635.16	6.757
635.48	6.737
635.81	6.702
636.14	6.645
636.46	6.610
636.79	6.553
637.11	6.511
637.44	6.532
637.77	6.504
638.09	6.486
638.42	6.480
638.75	6.462
639.07	6.443
639.40	6.398
639.73	6.410
640.05	6.420
640.38	6.415
640.70	6.419
641.03	6.400
641.36	6.462
641.68	6.457
642.01	6.470
642.33	6.416
642.66	6.415
642.98	6.411
643.31	6.421
643.64	6.406
643.96	6.369
644.29	6.354
644.61	6.396
644.94	6.353
645.26	6.357
645.59	6.365
645.91	6.428
646.24	6.425
646.56	6.438
646.89	6.394
647.22	6.397
647.54	6.433
647.87	6.430
648.19	6.409
648.52	6.424
648.84	6.445
649.17	6.409
649.49	6.370
649.82	6.329
650.14	6.292
650.47	6.327
650.79	6.315
651.11	6.302
651.44	6.340
651.76	6.275
652.09	6.226
652.41	6.201
652.74	6.180
653.06	6.172
653.39	6.148
653.71	6.181
654.04	6.203
654.36	6.209
654.68	6.197
655.01	6.148
655.33	6.158
655.66	6.128
655.98	6.117
656.30	6.153
656.63	6.178
656.95	6.215
657.28	6.205
657.60	6.137
657.92	6.126
658.25	6.088
658.57	6.064
658.90	6.005
659.22	5.968
659.54	5.904
659.87	5.814
660.19	5.686
660.51	5.580
660.84	5.471
661.16	5.400
661.48	5.299
661.81	5.235
662.13	5.137
662.45	5.088
662.78	5.090
663.10	5.063
663.42	5.049
663.75	5.087
664.07	5.076
664.39	5.039
664.72	4.980
665.04	4.987
665.36	4.946
665.69	4.905
666.01	4.917
666.33	4.845
666.65	4.782
666.98	4.703
667.30	4.628
667.62	4.624
667.94	4.603
668.27	4.545
668.59	4.521
668.91	4.452
669.23	4.435
669.56	4.368
669.88	4.266
670.20	4.261
670.52	4.223
670.85	4.154
671.17	4.062
671.49	4.012
671.81	4.006
672.13	3.939
672.46	3.900
672.78	3.854
673.10	3.778
673.42	3.791
673.74	3.746
674.07	3.759
674.39	3.714
674.71	3.699
675.03	3.636
675.35	3.606
675.67	3.574
676.00	3.632
676.32	3.649
676.64	3.695
676.96	3.730
677.28	3.813
677.60	3.788
677.92	3.841
678.25	3.893
678.57	3.933
678.89	3.972
679.21	3.958
679.53	3.881
679.85	3.935
680.17	3.895
680.49	3.856
680.81	3.765
681.13	3.790
681.46	3.727
681.78	3.628
682.10	3.605
682.42	3.552
682.74	3.568
683.06	3.679
683.38	3.566
683.70	3.590
684.02	3.585
684.34	3.591
684.66	3.574
684.98	3.634
685.30	3.705
685.62	3.723
685.94	3.721
686.26	3.664
686.58	3.551
686.90	3.511
687.22	3.509
687.54	3.474
687.86	3.369
688.18	3.251
688.50	3.125
688.82	2.944
689.14	2.859
689.46	2.756
689.78	2.671
690.10	2.653
690.42	2.596
690.74	2.462
691.06	2.347
691.38	2.233
691.70	2.209
692.02	2.064
692.34	2.014
692.66	1.924
692.98	1.825
693.30	1.831
693.62	1.749
693.94	1.826
694.26	1.879
694.57	1.934
694.89	2.083
695.21	2.177
695.53	2.294
695.85	2.370
696.17	2.471
696.49	2.619
696.81	2.638
697.13	2.755
697.44	2.741
697.76	2.697
698.08	2.598
698.40	2.456
698.72	2.266
699.04	2.114
699.36	1.941
699.67	1.706
699.99	1.361
700.31	1.094
700.63	0.557
700.95	0.169
701.27	-0.244
701.58	-0.543
701.90	-0.947
702.22	-1.172
702.54	-1.458
702.86	-1.669
703.17	-1.880
703.49	-2.029
703.81	-2.179
704.13	-2.256
704.45	-2.310
704.76	-2.352
705.08	-2.385
705.40	-2.317
705.72	-2.389
706.03	-2.333
706.35	-2.381
706.67	-2.437
706.99	-2.442
707.30	-2.555
707.62	-2.566
707.94	-2.644
708.26	-2.615
708.57	-2.601
708.89	-2.613
709.21	-2.623
709.53	-2.684
709.84	-2.704
710.16	-2.764
710.48	-2.697
710.79	-2.678
711.11	-2.513
711.43	-2.403
711.74	-2.294
712.06	-2.198
712.38	-2.041
712.69	-1.929
713.01	-1.726
713.33	-1.506
713.64	-1.147
713.96	-1.026
714.28	-0.741
714.59	-0.550
714.91	-0.257
715.23	0.008
715.54	0.195
715.86	0.381
716.17	0.547
716.49	0.575
716.81	0.581
717.12	0.479
717.44	0.380
717.76	0.153
718.07	0.032
718.39	-0.394
718.70	-0.829
719.02	-1.362
719.33	-1.959
719.65	-2.289
719.97	-2.668
720.28	-2.789
720.60	-2.980
720.91	-2.939
721.23	-2.872
721.54	-3.061
721.86	-2.985
722.17	-2.920
722.49	-2.530
722.81	-2.211
723.12	-2.240
723.44	-2.085
723.75	-2.057
724.07	-2.112
724.38	-2.234
724.70	-2.289
725.01	-2.278
725.33	-2.170
725.64	-2.050
725.96	-2.049
726.27	-2.035
726.59	-1.978
726.90	-1.913
727.22	-1.960
727.53	-1.818
727.84	-1.752
728.16	-1.754
728.47	-1.836
728.79	-2.070
729.10	-2.459
729.42	-2.761
729.73	-3.187
730.05	-3.491
730.36	-3.842
730.67	-4.271
730.99	-4.780
731.30	-5.157
731.62	-5.676
731.93	-5.940
732.24	-6.311
732.56	-6.596
732.87	-6.923
733.19	-7.135
733.50	-7.555
733.81	-7.983
734.13	-8.326
734.44	-8.812
734.76	-9.106
735.07	-9.386
735.38	-9.876
735.70	-10.214
736.01	-10.623
736.32	-10.909
736.64	-11.179
736.95	-11.357
737.26	-11.573
737.58	-11.895
737.89	-11.975
738.20	-12.535
738.52	-12.910
738.83	-13.315
739.14	-13.802
739.45	-14.279
739.77	-14.898
740.08	-15.667
740.39	-16.111
740.71	-16.672
741.02	-17.382
741.33	-18.063
741.64	-18.687
741.96	-19.174
742.27	-19.841
742.58	-20.458
742.90	-20.812
743.21	-21.305
743.52	-21.464
743.83	-21.850
744.14	-22.064
744.46	-22.290
744.77	-22.379
745.08	-22.520
745.39	-22.456
745.71	-22.277
746.02	-22.052
746.33	-21.843
746.64	-21.716
746.95	-21.887
747.27	-21.891
747.58	-21.699
747.89	-21.610
748.20	-21.748
748.51	-21.555
748.82	-21.508
749.14	-21.609
749.45	-21.636
749.76	-22.438
750.07	-22.638
750.38	-22.642
750.69	-22.979
751.01	-23.313
751.32	-23.417
751.63	-23.372
751.94	-23.432
752.25	-23.709
752.56	-23.883
752.87	-24.366
753.18	-23.854
753.49	-23.791
753.81	-23.829
754.12	-23.264
754.43	-22.908
754.74	-22.093
755.05	-21.154
755.36	-19.839
755.67	-18.703
755.98	-16.798
756.29	-15.051
756.60	-13.365
756.91	-11.628
757.22	-9.607
757.53	-7.986
757.84	-6.230
758.15	-4.294
758.46	-2.709
758.77	-1.529
759.09	-0.059
759.40	0.847
759.71	1.517
760.02	2.245
760.33	2.611
760.64	2.659
760.95	2.803
761.26	2.823
761.57	2.502
761.88	2.106
762.18	1.683
762.49	1.164
762.80	0.438
763.11	-0.147
763.42	-1.258
763.73	-2.341
764.04	-3.377
764.35	-4.775
764.66	-6.250
764.97	-8.079
765.28	-9.898
765.59	-12.141
765.90	-14.714
766.21	-17.110
766.52	-19.239
766.83	-21.056
767.14	-22.864
767.44	-24.641
767.75	-26.487
768.06	-27.791
768.37	-28.940
768.68	-30.623
768.99	-31.428
769.30	-32.210
769.61	-33.334
769.91	-34.261
770.22	-35.092
770.53	-35.451
770.84	-36.463
771.15	-36.563
771.46	-37.896
771.77	-38.845
772.07	-38.652
772.38	-39.147
772.69	-40.297
773.00	-40.369
773.31	-40.975
773.61	-41.669
773.92	-42.120
774.23	-41.470
774.54	-42.090
774.85	-41.562
775.15	-41.516
775.46	-41.564
775.77	-41.056
776.08	-39.986
776.39	-40.227
776.69	-40.153
777.00	-39.949
777.31	-39.760
777.62	-39.724
777.92	-39.054
778.23	-39.974
778.54	-39.365
778.85	-39.650
779.15	-39.935
779.46	-39.880
779.77	-40.095
780.07	-40.235
780.38	-40.634
780.69	-40.916
781.00	-41.430
781.30	-42.130
781.61	-41.735
781.92	-42.646
782.22	-42.488
782.53	-42.661
782.84	-42.876
783.14	-41.530
783.45	-40.435
783.76	-39.048
784.06	-38.044
784.37	-36.715
784.68	-35.268
784.98	-33.837
785.29	-31.979
785.60	-30.495
785.90	-29.182
786.21	-28.061
786.51	-26.625
786.82	-25.394
787.13	-24.926
787.43	-24.640
787.74	-24.215
788.04	-23.979
788.35	-24.117
788.66	-24.338
788.96	-25.211
789.27	-25.307
789.57	-25.763
789.88	-27.460
790.19	-28.448
790.49	-28.988
790.80	-29.501
791.10	-30.379
791.41	-30.377
791.71	-29.945
792.02	-29.513
792.32	-28.717
792.63	-28.378
792.93	-27.437
793.24	-26.533
793.54	-26.125
793.85	-25.203
794.15	-23.582
794.46	-22.845
794.76	-22.767
795.07	-22.925
795.37	-22.972
795.68	-21.801
795.98	-22.452
796.29	-22.324
796.59	-22.255
796.90	-22.574
797.20	-22.408
797.51	-23.103
797.81	-23.069
798.12	-23.382
798.42	-22.952
798.72	-22.795
799.03	-24.021
799.33	-23.138
799.64	-23.754
799.94	-23.651
800.25	-23.165
800.55	-23.530
800.85	-23.777
801.16	-23.764
801.46	-22.955
801.77	-23.118
802.07	-23.343
802.37	-22.762
802.68	-23.391
802.98	-23.674
803.28	-23.799
803.59	-24.345
803.89	-24.118
804.20	-23.724
804.50	-23.444
804.80	-24.233
805.11	-24.429
805.41	-24.349
805.71	-24.445
806.02	-23.303
806.32	-23.005
806.62	-23.722
806.93	-23.148
807.23	-23.183
807.53	-23.154
807.83	-23.395
808.14	-22.908
808.44	-22.019
808.74	-22.187
809.05	-21.626
809.35	-21.827
809.65	-21.639
809.95	-20.128
810.26	-19.411
810.56	-18.689
810.86	-17.877
811.16	-17.238
811.47	-15.958
811.77	-15.494
812.07	-14.648
812.37	-13.805
812.68	-13.145
812.98	-11.761
813.28	-10.950
813.58	-10.281
813.88	-9.667
814.19	-9.387
814.49	-8.450
814.79	-8.028
815.09	-6.966
815.39	-6.016
815.70	-6.160
816.00	-5.460
816.30	-5.201
816.60	-4.772
816.90	-4.199
817.20	-3.052
817.50	-1.768
817.81	-0.057
818.11	1.295
818.41	2.461
818.71	3.336
819.01	4.359
819.31	4.972
819.61	5.584
819.92	6.126
820.22	6.450
820.52	6.688
820.82	6.870
821.12	7.040
821.42	7.174
821.72	7.148
822.02	7.250
822.32	7.171
822.62	7.136
822.92	6.970
823.22	6.777
823.52	6.608
823.83	6.492
824.13	6.374
824.43	6.117
824.73	5.852
825.03	5.599
825.33	5.236
825.63	5.064
825.93	4.913
826.23	4.696
826.53	4.550
826.83	4.521
827.13	4.210
827.43	3.981
827.73	3.585
828.03	3.223
828.33	2.958
828.63	2.321
828.93	1.614
829.23	0.921
829.53	0.892
829.83	0.423
830.13	-0.432
830.42	-0.984
830.72	-1.145
831.02	-1.082
831.32	-0.807
831.62	-0.676
831.92	0.069
832.22	0.191
832.52	0.223
832.82	0.058
833.12	-0.048
833.42	0.226
833.72	0.109
834.01	-0.431
834.31	-0.753
834.61	-1.534
834.91	-2.095
835.21	-3.134
835.51	-3.753
835.81	-4.448
836.11	-5.564
836.40	-7.317
836.70	-9.208
837.00	-10.108
837.30	-10.662
837.60	-11.756
837.90	-11.944
838.19	-12.834
838.49	-13.033
838.79	-13.581
839.09	-14.315
839.39	-15.803
839.68	-16.017
839.98	-16.622
840.28	-18.606
840.58	-20.426
840.88	-22.868
841.17	-24.735
841.47	-27.328
841.77	-30.830
842.07	-35.160
842.36	-38.927
842.66	-40.314
842.96	-44.307
843.26	-47.034
843.55	-49.531
843.85	-50.739
844.15	-52.359
844.45	-52.310
844.74	-50.995
845.04	-52.174
845.34	-50.468
845.63	-50.456
845.93	-54.122
846.23	-55.568
846.53	-56.428
846.82	-57.010
847.12	-60.207
847.42	-59.680
847.71	-62.654
848.01	-66.966
848.31	-62.742
848.60	-58.600
848.90	-59.124
849.19	-55.114
849.49	-56.359
849.79	-60.145
850.08	-65.003
850.38	-65.683
850.68	-63.350
850.97	-63.044
851.27	-60.249
851.56	-65.883
851.86	-70.994
852.16	-73.623
852.45	-76.707
852.75	-72.407
853.04	-71.013
853.34	-63.634
853.64	-59.065
853.93	-57.227
854.23	-59.583
854.52	-58.768
854.82	-52.961
855.11	-53.107
855.41	-50.449
855.70	-48.916
856.00	-51.049
856.30	-52.781
856.59	-49.449
856.89	-52.648
857.18	-56.208
857.48	-54.932
857.77	-57.608
858.07	-59.819
858.36	-61.459
858.66	-63.720
858.95	-65.762
859.25	-64.540
859.54	-64.456
859.84	-68.549
860.13	-63.442
860.42	-62.469
860.72	-61.255
861.01	-60.298
861.31	-57.860
861.60	-55.418
861.90	-51.289
862.19	-50.216
862.49	-49.325
862.78	-45.315
863.07	-42.714
863.37	-43.419
863.66	-47.159
863.96	-49.519
864.25	-45.175
864.54	-47.363
864.84	-47.472
865.13	-51.822
865.43	-47.008
865.72	-26.291
866.01	-61.666
866.31	-63.540
866.60	-85.124
866.89	-8.500
>>>>>End Spectral Data<<<<<
