OOIBase32 Version 2.0.0.6 Data File
++++++++++++++++++++++++++++++++++++
Date: 01-22-2012, 21:22:26
User: Valued Ocean Optics Customer
Spectrometer Serial Number: USB2E2917
Spectrometer Channel: Master
Integration Time (msec): 4
Spectra Averaged: 10
Boxcar Smoothing: 5
Correct for Electrical Dark: Enabled
Time Normalized: Disabled
Dual-beam Reference: Disabled
Reference Channel: Master
Temperature: Not acquired
Spectrometer Type: S2000
ADC Type: USB2000
Number of Pixels in File: 2048
Graph Title: 
>>>>>Begin Spectral Data<<<<<
180.30	0.000
180.67	0.000
181.03	-14.102
181.40	148.048
181.77	-193.240
182.14	-94.621
182.51	485.310
182.88	95.369
183.25	-123.459
183.62	84.262
183.99	-9.864
184.36	-14.910
184.73	-123.461
185.10	1376.762
185.46	87.118
185.83	32.311
186.20	23.821
186.57	361.770
186.94	159.049
187.31	-0.196
187.68	277.172
188.05	63.798
188.42	25.347
188.78	204.404
189.15	134.758
189.52	77.610
189.89	53.731
190.26	46.368
190.63	45.402
191.00	23.892
191.37	19.768
191.73	38.898
192.10	14.324
192.47	-20.357
192.84	-189.823
193.21	-338.103
193.58	-214.380
193.94	-121.708
194.31	-18.133
194.68	-13.806
195.05	-9.186
195.42	-36.272
195.79	-44.804
196.15	-15.901
196.52	0.478
196.89	2.965
197.26	-1.937
197.63	-3.538
198.00	-5.644
198.36	-15.732
198.73	2.206
199.10	-40.620
199.47	-5.288
199.84	12.598
200.20	-17.606
200.57	-1.956
200.94	30.173
201.31	43.608
201.68	43.007
202.04	47.422
202.41	43.897
202.78	46.100
203.15	56.026
203.51	58.108
203.88	55.535
204.25	38.593
204.62	20.832
204.98	11.128
205.35	-12.382
205.72	-36.082
206.09	-118.989
206.46	-92.263
206.82	-158.857
207.19	-196.303
207.56	-214.314
207.92	-221.329
208.29	-133.085
208.66	-77.735
209.03	-83.699
209.39	-32.508
209.76	-10.270
210.13	21.948
210.50	34.118
210.86	34.755
211.23	37.677
211.60	31.052
211.96	32.507
212.33	48.655
212.70	-618.001
213.07	-94.936
213.43	-88.256
213.80	-321.351
214.17	52.968
214.53	302.933
214.90	40.264
215.27	63.170
215.63	62.591
216.00	61.527
216.37	36.586
216.74	29.913
217.10	29.329
217.47	25.531
217.84	13.172
218.20	20.689
218.57	31.613
218.94	27.174
219.30	24.418
219.67	24.390
220.04	26.606
220.40	23.862
220.77	20.246
221.13	8.220
221.50	8.378
221.87	8.284
222.23	6.817
222.60	-1.390
222.97	-2.296
223.33	-12.522
223.70	-17.380
224.07	-21.557
224.43	-14.440
224.80	-7.602
225.16	-4.603
225.53	-3.341
225.90	-3.419
226.26	-4.211
226.63	-2.890
226.99	-2.014
227.36	-0.454
227.73	0.784
228.09	1.278
228.46	3.213
228.82	2.031
229.19	3.282
229.56	0.565
229.92	2.924
230.29	5.043
230.65	6.253
231.02	4.139
231.38	4.909
231.75	5.168
232.12	5.042
232.48	2.353
232.85	2.872
233.21	1.837
233.58	5.134
233.94	3.098
234.31	2.165
234.68	0.541
235.04	4.091
235.41	3.479
235.77	2.038
236.14	1.981
236.50	4.491
236.87	4.627
237.23	4.095
237.60	2.523
237.96	1.259
238.33	0.085
238.69	0.080
239.06	-0.944
239.42	-1.534
239.79	-0.328
240.15	0.545
240.52	-0.369
240.88	-0.351
241.25	-0.298
241.61	-0.647
241.98	-0.269
242.34	-0.016
242.71	0.095
243.07	0.456
243.44	1.295
243.80	1.006
244.17	0.392
244.53	0.510
244.90	0.611
245.26	0.694
245.63	0.927
245.99	1.130
246.36	1.137
246.72	0.909
247.09	0.527
247.45	0.579
247.81	0.730
248.18	1.064
248.54	1.149
248.91	0.774
249.27	0.188
249.64	0.315
250.00	0.425
250.36	0.517
250.73	0.793
251.09	1.117
251.46	0.819
251.82	0.726
252.19	0.275
252.55	0.433
252.91	1.110
253.28	1.004
253.64	1.073
254.01	0.940
254.37	1.507
254.73	1.436
255.10	1.146
255.46	1.553
255.83	1.705
256.19	1.845
256.55	1.641
256.92	1.476
257.28	1.922
257.65	1.916
258.01	1.655
258.37	1.365
258.74	1.297
259.10	1.429
259.46	1.088
259.83	1.125
260.19	1.293
260.55	1.089
260.92	0.998
261.28	0.780
261.64	0.770
262.01	0.719
262.37	0.602
262.73	0.802
263.10	0.418
263.46	0.995
263.82	0.461
264.19	0.048
264.55	0.315
264.91	0.531
265.28	0.915
265.64	0.593
266.00	0.490
266.37	0.711
266.73	0.842
267.09	0.924
267.46	0.560
267.82	1.020
268.18	1.374
268.54	1.410
268.91	1.563
269.27	1.410
269.63	1.411
270.00	1.712
270.36	1.797
270.72	1.585
271.08	1.673
271.45	1.773
271.81	1.864
272.17	1.907
272.53	2.067
272.90	1.854
273.26	1.560
273.62	1.777
273.98	1.929
274.35	1.706
274.71	1.508
275.07	1.642
275.43	1.746
275.80	1.692
276.16	1.455
276.52	1.302
276.88	1.312
277.25	1.197
277.61	1.401
277.97	1.328
278.33	1.634
278.69	1.821
279.06	1.614
279.42	1.407
279.78	1.340
280.14	1.481
280.50	1.453
280.87	1.489
281.23	1.857
281.59	1.822
281.95	1.841
282.31	1.694
282.68	1.791
283.04	1.828
283.40	1.662
283.76	1.597
284.12	1.444
284.48	1.410
284.85	1.503
285.21	1.429
285.57	1.373
285.93	1.425
286.29	1.295
286.65	1.226
287.02	1.356
287.38	1.596
287.74	1.515
288.10	1.591
288.46	1.449
288.82	1.262
289.18	1.067
289.54	0.803
289.91	0.513
290.27	0.657
290.63	0.749
290.99	0.627
291.35	0.673
291.71	0.707
292.07	0.713
292.43	0.896
292.79	1.122
293.16	1.408
293.52	1.652
293.88	1.853
294.24	1.775
294.60	1.820
294.96	1.823
295.32	1.874
295.68	1.754
296.04	1.886
296.40	1.934
296.76	1.881
297.12	2.049
297.49	2.119
297.85	2.393
298.21	2.697
298.57	2.611
298.93	2.849
299.29	2.632
299.65	2.969
300.01	2.929
300.37	3.012
300.73	3.003
301.09	2.820
301.45	2.744
301.81	2.551
302.17	2.352
302.53	2.538
302.89	2.549
303.25	2.663
303.61	2.658
303.97	2.724
304.33	2.962
304.69	3.297
305.05	3.506
305.41	3.607
305.77	3.532
306.13	3.822
306.49	3.867
306.85	3.931
307.21	3.879
307.57	3.772
307.93	3.761
308.29	3.652
308.65	3.395
309.01	3.251
309.37	3.212
309.73	3.300
310.09	3.117
310.45	3.058
310.81	2.983
311.17	3.084
311.53	3.215
311.89	3.216
312.25	3.188
312.61	3.329
312.96	3.450
313.32	3.503
313.68	3.431
314.04	3.614
314.40	3.542
314.76	3.699
315.12	3.779
315.48	3.838
315.84	3.581
316.20	3.471
316.56	3.386
316.92	3.286
317.27	3.300
317.63	3.194
317.99	3.104
318.35	3.255
318.71	3.209
319.07	3.253
319.43	3.098
319.79	3.290
320.15	3.396
320.50	3.524
320.86	3.609
321.22	3.626
321.58	3.690
321.94	3.637
322.30	3.687
322.66	3.658
323.01	3.543
323.37	3.763
323.73	3.672
324.09	3.853
324.45	3.680
324.81	3.618
325.17	3.584
325.52	3.701
325.88	3.772
326.24	3.706
326.60	3.704
326.96	3.801
327.31	3.464
327.67	3.570
328.03	3.354
328.39	3.377
328.75	3.451
329.11	3.474
329.46	3.464
329.82	3.451
330.18	3.459
330.54	3.435
330.90	3.383
331.25	3.569
331.61	3.520
331.97	3.454
332.33	3.466
332.68	3.496
333.04	3.510
333.40	3.427
333.76	3.439
334.11	3.363
334.47	3.281
334.83	3.214
335.19	3.191
335.54	3.220
335.90	3.237
336.26	3.236
336.62	3.229
336.97	3.178
337.33	3.263
337.69	3.196
338.05	3.305
338.40	3.308
338.76	3.365
339.12	3.293
339.48	3.198
339.83	3.257
340.19	3.352
340.55	3.310
340.90	3.316
341.26	3.309
341.62	3.293
341.97	3.249
342.33	3.327
342.69	3.379
343.04	3.363
343.40	3.417
343.76	3.319
344.12	3.265
344.47	3.099
344.83	3.119
345.19	3.054
345.54	3.116
345.90	3.031
346.26	2.997
346.61	2.829
346.97	2.860
347.32	2.871
347.68	2.985
348.04	3.014
348.39	3.153
348.75	3.118
349.11	3.075
349.46	2.990
349.82	3.023
350.18	2.990
350.53	3.088
350.89	3.060
351.24	3.063
351.60	3.028
351.96	3.021
352.31	2.998
352.67	2.941
353.02	3.033
353.38	3.077
353.74	3.076
354.09	3.084
354.45	3.078
354.80	3.117
355.16	3.144
355.52	3.102
355.87	3.005
356.23	3.023
356.58	3.041
356.94	2.989
357.29	2.927
357.65	2.884
358.00	2.903
358.36	2.898
358.72	2.815
359.07	2.753
359.43	2.753
359.78	2.774
360.14	2.681
360.49	2.659
360.85	2.597
361.20	2.603
361.56	2.637
361.91	2.596
362.27	2.592
362.62	2.649
362.98	2.676
363.33	2.713
363.69	2.706
364.04	2.751
364.40	2.783
364.75	2.848
365.11	2.834
365.46	2.747
365.82	2.711
366.17	2.615
366.53	2.540
366.88	2.553
367.24	2.532
367.59	2.496
367.95	2.493
368.30	2.463
368.66	2.442
369.01	2.478
369.37	2.516
369.72	2.525
370.08	2.611
370.43	2.680
370.78	2.641
371.14	2.598
371.49	2.567
371.85	2.539
372.20	2.588
372.56	2.589
372.91	2.566
373.26	2.632
373.62	2.598
373.97	2.555
374.33	2.531
374.68	2.538
375.03	2.556
375.39	2.538
375.74	2.580
376.10	2.560
376.45	2.551
376.80	2.550
377.16	2.439
377.51	2.538
377.87	2.604
378.22	2.574
378.57	2.561
378.93	2.540
379.28	2.573
379.63	2.547
379.99	2.514
380.34	2.488
380.70	2.469
381.05	2.525
381.40	2.438
381.76	2.355
382.11	2.369
382.46	2.369
382.82	2.329
383.17	2.330
383.52	2.290
383.88	2.285
384.23	2.309
384.58	2.292
384.94	2.268
385.29	2.284
385.64	2.277
385.99	2.250
386.35	2.252
386.70	2.245
387.05	2.264
387.41	2.312
387.76	2.286
388.11	2.264
388.47	2.271
388.82	2.253
389.17	2.241
389.52	2.279
389.88	2.317
390.23	2.313
390.58	2.331
390.93	2.331
391.29	2.337
391.64	2.382
391.99	2.406
392.34	2.423
392.70	2.414
393.05	2.404
393.40	2.377
393.75	2.331
394.11	2.319
394.46	2.292
394.81	2.266
395.16	2.220
395.52	2.183
395.87	2.150
396.22	2.119
396.57	2.109
396.92	2.090
397.28	2.086
397.63	2.084
397.98	2.072
398.33	2.085
398.68	2.098
399.04	2.063
399.39	2.051
399.74	2.047
400.09	2.041
400.44	2.040
400.80	2.063
401.15	2.028
401.50	2.056
401.85	2.030
402.20	2.027
402.55	1.996
402.90	2.025
403.26	2.010
403.61	1.981
403.96	1.988
404.31	2.011
404.66	1.990
405.01	2.009
405.36	1.973
405.72	1.982
406.07	1.989
406.42	2.019
406.77	2.005
407.12	2.010
407.47	2.034
407.82	2.027
408.17	1.992
408.53	2.008
408.88	2.026
409.23	2.031
409.58	2.037
409.93	2.025
410.28	2.019
410.63	2.023
410.98	2.007
411.33	1.989
411.68	2.005
412.03	2.005
412.38	1.996
412.73	1.977
413.09	1.960
413.44	1.937
413.79	1.951
414.14	1.949
414.49	1.921
414.84	1.939
415.19	1.943
415.54	1.914
415.89	1.917
416.24	1.908
416.59	1.911
416.94	1.909
417.29	1.906
417.64	1.914
417.99	1.893
418.34	1.916
418.69	1.889
419.04	1.877
419.39	1.892
419.74	1.898
420.09	1.890
420.44	1.873
420.79	1.870
421.14	1.885
421.49	1.869
421.84	1.870
422.19	1.864
422.54	1.867
422.89	1.880
423.24	1.853
423.59	1.831
423.94	1.836
424.29	1.850
424.64	1.859
424.99	1.871
425.34	1.873
425.68	1.886
426.03	1.879
426.38	1.904
426.73	1.894
427.08	1.900
427.43	1.903
427.78	1.897
428.13	1.881
428.48	1.892
428.83	1.859
429.18	1.862
429.53	1.878
429.87	1.878
430.22	1.872
430.57	1.867
430.92	1.860
431.27	1.868
431.62	1.867
431.97	1.857
432.32	1.838
432.67	1.851
433.01	1.853
433.36	1.818
433.71	1.815
434.06	1.811
434.41	1.819
434.76	1.848
435.11	1.866
435.45	1.858
435.80	1.854
436.15	1.866
436.50	1.848
436.85	1.843
437.20	1.850
437.54	1.835
437.89	1.836
438.24	1.818
438.59	1.814
438.94	1.788
439.29	1.787
439.63	1.794
439.98	1.797
440.33	1.800
440.68	1.787
441.03	1.785
441.37	1.790
441.72	1.789
442.07	1.799
442.42	1.781
442.76	1.775
443.11	1.786
443.46	1.785
443.81	1.770
444.16	1.771
444.50	1.766
444.85	1.763
445.20	1.766
445.55	1.763
445.89	1.748
446.24	1.748
446.59	1.765
446.94	1.750
447.28	1.760
447.63	1.749
447.98	1.732
448.32	1.734
448.67	1.728
449.02	1.714
449.37	1.713
449.71	1.730
450.06	1.747
450.41	1.741
450.75	1.735
451.10	1.733
451.45	1.750
451.79	1.764
452.14	1.776
452.49	1.776
452.84	1.759
453.18	1.755
453.53	1.736
453.88	1.736
454.22	1.718
454.57	1.714
454.92	1.695
455.26	1.689
455.61	1.684
455.95	1.667
456.30	1.673
456.65	1.677
456.99	1.675
457.34	1.686
457.69	1.664
458.03	1.673
458.38	1.692
458.73	1.705
459.07	1.705
459.42	1.701
459.76	1.708
460.11	1.702
460.46	1.711
460.80	1.709
461.15	1.696
461.49	1.698
461.84	1.693
462.19	1.689
462.53	1.658
462.88	1.645
463.22	1.642
463.57	1.633
463.91	1.648
464.26	1.662
464.61	1.653
464.95	1.676
465.30	1.689
465.64	1.686
465.99	1.669
466.33	1.678
466.68	1.658
467.02	1.658
467.37	1.674
467.71	1.639
468.06	1.615
468.41	1.606
468.75	1.589
469.10	1.578
469.44	1.579
469.79	1.578
470.13	1.560
470.48	1.573
470.82	1.590
471.17	1.556
471.51	1.562
471.86	1.569
472.20	1.562
472.55	1.544
472.89	1.537
473.23	1.515
473.58	1.495
473.92	1.489
474.27	1.478
474.61	1.459
474.96	1.462
475.30	1.467
475.65	1.466
475.99	1.479
476.34	1.475
476.68	1.468
477.02	1.486
477.37	1.487
477.71	1.499
478.06	1.514
478.40	1.511
478.75	1.538
479.09	1.556
479.43	1.572
479.78	1.592
480.12	1.624
480.47	1.657
480.81	1.677
481.15	1.709
481.50	1.741
481.84	1.768
482.19	1.801
482.53	1.820
482.87	1.831
483.22	1.826
483.56	1.808
483.90	1.780
484.25	1.760
484.59	1.748
484.94	1.724
485.28	1.701
485.62	1.681
485.97	1.653
486.31	1.624
486.65	1.603
487.00	1.602
487.34	1.605
487.68	1.623
488.03	1.633
488.37	1.624
488.71	1.625
489.06	1.614
489.40	1.600
489.74	1.586
490.09	1.583
490.43	1.575
490.77	1.562
491.11	1.562
491.46	1.554
491.80	1.525
492.14	1.508
492.49	1.495
492.83	1.476
493.17	1.450
493.51	1.430
493.86	1.395
494.20	1.380
494.54	1.360
494.88	1.361
495.23	1.339
495.57	1.333
495.91	1.337
496.25	1.324
496.60	1.325
496.94	1.321
497.28	1.308
497.62	1.306
497.97	1.302
498.31	1.318
498.65	1.304
498.99	1.298
499.33	1.313
499.68	1.298
500.02	1.291
500.36	1.275
500.70	1.269
501.04	1.277
501.39	1.273
501.73	1.257
502.07	1.236
502.41	1.219
502.75	1.226
503.09	1.225
503.44	1.233
503.78	1.234
504.12	1.245
504.46	1.249
504.80	1.259
505.14	1.276
505.49	1.297
505.83	1.306
506.17	1.313
506.51	1.309
506.85	1.291
507.19	1.289
507.53	1.298
507.87	1.296
508.22	1.309
508.56	1.313
508.90	1.309
509.24	1.296
509.58	1.304
509.92	1.295
510.26	1.287
510.60	1.289
510.94	1.276
511.28	1.279
511.63	1.278
511.97	1.264
512.31	1.247
512.65	1.232
512.99	1.246
513.33	1.245
513.67	1.261
514.01	1.275
514.35	1.299
514.69	1.314
515.03	1.319
515.37	1.324
515.71	1.343
516.05	1.352
516.39	1.356
516.73	1.368
517.07	1.359
517.41	1.362
517.75	1.357
518.09	1.349
518.43	1.348
518.77	1.334
519.11	1.311
519.45	1.294
519.79	1.291
520.13	1.297
520.47	1.275
520.81	1.284
521.15	1.281
521.49	1.295
521.83	1.287
522.17	1.283
522.51	1.292
522.85	1.332
523.19	1.364
523.53	1.391
523.87	1.416
524.21	1.440
524.55	1.468
524.89	1.488
525.23	1.509
525.57	1.534
525.91	1.559
526.25	1.571
526.58	1.582
526.92	1.596
527.26	1.605
527.60	1.612
527.94	1.613
528.28	1.602
528.62	1.599
528.96	1.592
529.30	1.587
529.64	1.583
529.97	1.589
530.31	1.577
530.65	1.557
530.99	1.540
531.33	1.525
531.67	1.523
532.01	1.526
532.35	1.521
532.68	1.522
533.02	1.511
533.36	1.505
533.70	1.492
534.04	1.481
534.38	1.463
534.71	1.456
535.05	1.445
535.39	1.429
535.73	1.417
536.07	1.411
536.41	1.406
536.74	1.417
537.08	1.423
537.42	1.437
537.76	1.450
538.10	1.470
538.43	1.476
538.77	1.495
539.11	1.504
539.45	1.508
539.79	1.517
540.12	1.519
540.46	1.517
540.80	1.511
541.14	1.504
541.47	1.506
541.81	1.498
542.15	1.500
542.49	1.490
542.82	1.485
543.16	1.481
543.50	1.472
543.84	1.456
544.17	1.437
544.51	1.422
544.85	1.417
545.18	1.397
545.52	1.386
545.86	1.375
546.20	1.369
546.53	1.347
546.87	1.335
547.21	1.321
547.54	1.319
547.88	1.313
548.22	1.308
548.55	1.277
548.89	1.263
549.23	1.270
549.56	1.268
549.90	1.242
550.24	1.251
550.57	1.244
550.91	1.239
551.25	1.227
551.58	1.226
551.92	1.225
552.26	1.232
552.59	1.226
552.93	1.227
553.27	1.203
553.60	1.202
553.94	1.176
554.27	1.185
554.61	1.190
554.95	1.206
555.28	1.191
555.62	1.183
555.95	1.172
556.29	1.171
556.63	1.171
556.96	1.189
557.30	1.209
557.63	1.208
557.97	1.198
558.31	1.190
558.64	1.190
558.98	1.211
559.31	1.223
559.65	1.224
559.98	1.235
560.32	1.225
560.65	1.196
560.99	1.182
561.33	1.198
561.66	1.193
562.00	1.212
562.33	1.192
562.67	1.189
563.00	1.187
563.34	1.210
563.67	1.216
564.01	1.206
564.34	1.234
564.68	1.247
565.01	1.251
565.35	1.262
565.68	1.258
566.02	1.293
566.35	1.297
566.69	1.283
567.02	1.276
567.36	1.287
567.69	1.278
568.03	1.267
568.36	1.265
568.69	1.261
569.03	1.272
569.36	1.259
569.70	1.229
570.03	1.234
570.37	1.253
570.70	1.275
571.04	1.274
571.37	1.283
571.70	1.294
572.04	1.294
572.37	1.295
572.71	1.300
573.04	1.294
573.37	1.310
573.71	1.301
574.04	1.305
574.38	1.275
574.71	1.256
575.04	1.264
575.38	1.249
575.71	1.239
576.05	1.229
576.38	1.203
576.71	1.202
577.05	1.199
577.38	1.192
577.71	1.167
578.05	1.154
578.38	1.153
578.71	1.127
579.05	1.113
579.38	1.116
579.71	1.116
580.05	1.092
580.38	1.100
580.71	1.079
581.05	1.065
581.38	1.055
581.71	1.058
582.05	1.039
582.38	1.017
582.71	1.019
583.04	1.004
583.38	0.981
583.71	0.984
584.04	0.962
584.38	0.961
584.71	0.973
585.04	0.978
585.37	0.967
585.71	0.980
586.04	1.018
586.37	1.014
586.70	1.017
587.04	1.044
587.37	1.037
587.70	1.041
588.03	1.017
588.37	1.005
588.70	1.013
589.03	1.016
589.36	0.992
589.69	0.956
590.03	0.926
590.36	0.911
590.69	0.861
591.02	0.849
591.35	0.812
591.69	0.810
592.02	0.783
592.35	0.765
592.68	0.763
593.01	0.762
593.35	0.747
593.68	0.748
594.01	0.734
594.34	0.749
594.67	0.735
595.00	0.718
595.34	0.707
595.67	0.695
596.00	0.669
596.33	0.642
596.66	0.611
596.99	0.588
597.32	0.556
597.65	0.505
597.99	0.462
598.32	0.429
598.65	0.403
598.98	0.353
599.31	0.337
599.64	0.319
599.97	0.297
600.30	0.286
600.63	0.294
600.96	0.325
601.30	0.327
601.63	0.337
601.96	0.342
602.29	0.368
602.62	0.382
602.95	0.370
603.28	0.350
603.61	0.326
603.94	0.305
604.27	0.269
604.60	0.229
604.93	0.226
605.26	0.192
605.59	0.171
605.92	0.134
606.25	0.126
606.58	0.103
606.91	0.093
607.24	0.096
607.57	0.090
607.90	0.100
608.23	0.068
608.56	0.044
608.89	0.039
609.22	-0.017
609.55	-0.044
609.88	-0.101
610.21	-0.116
610.54	-0.176
610.87	-0.236
611.20	-0.303
611.53	-0.366
611.86	-0.406
612.19	-0.428
612.52	-0.480
612.85	-0.455
613.18	-0.480
613.51	-0.517
613.84	-0.576
614.17	-0.574
614.49	-0.584
614.82	-0.537
615.15	-0.538
615.48	-0.522
615.81	-0.554
616.14	-0.567
616.47	-0.590
616.80	-0.601
617.13	-0.582
617.46	-0.572
617.78	-0.622
618.11	-0.632
618.44	-0.651
618.77	-0.658
619.10	-0.709
619.43	-0.707
619.76	-0.711
620.09	-0.744
620.41	-0.748
620.74	-0.748
621.07	-0.759
621.40	-0.702
621.73	-0.662
622.06	-0.658
622.38	-0.626
622.71	-0.581
623.04	-0.558
623.37	-0.536
623.70	-0.498
624.02	-0.479
624.35	-0.456
624.68	-0.403
625.01	-0.383
625.34	-0.392
625.66	-0.399
625.99	-0.421
626.32	-0.447
626.65	-0.440
626.98	-0.458
627.30	-0.450
627.63	-0.463
627.96	-0.515
628.29	-0.577
628.61	-0.628
628.94	-0.679
629.27	-0.732
629.60	-0.754
629.92	-0.738
630.25	-0.797
630.58	-0.830
630.91	-0.884
631.23	-0.929
631.56	-0.914
631.89	-0.914
632.21	-0.904
632.54	-0.886
632.87	-0.866
633.19	-0.859
633.52	-0.902
633.85	-0.916
634.18	-0.915
634.50	-0.929
634.83	-0.944
635.16	-0.992
635.48	-1.003
635.81	-1.049
636.14	-1.100
636.46	-1.120
636.79	-1.181
637.11	-1.184
637.44	-1.200
637.77	-1.233
638.09	-1.258
638.42	-1.310
638.75	-1.339
639.07	-1.398
639.40	-1.437
639.73	-1.448
640.05	-1.480
640.38	-1.505
640.70	-1.536
641.03	-1.561
641.36	-1.593
641.68	-1.577
642.01	-1.518
642.33	-1.431
642.66	-1.427
642.98	-1.375
643.31	-1.403
643.64	-1.377
643.96	-1.365
644.29	-1.378
644.61	-1.375
644.94	-1.321
645.26	-1.274
645.59	-1.237
645.91	-1.304
646.24	-1.270
646.56	-1.288
646.89	-1.239
647.22	-1.243
647.54	-1.215
647.87	-1.210
648.19	-1.193
648.52	-1.191
648.84	-1.260
649.17	-1.280
649.49	-1.298
649.82	-1.318
650.14	-1.318
650.47	-1.354
650.79	-1.369
651.11	-1.396
651.44	-1.383
651.76	-1.337
652.09	-1.358
652.41	-1.316
652.74	-1.354
653.06	-1.341
653.39	-1.351
653.71	-1.323
654.04	-1.263
654.36	-1.241
654.68	-1.183
655.01	-1.118
655.33	-1.095
655.66	-1.058
655.98	-1.027
656.30	-0.996
656.63	-0.979
656.95	-0.944
657.28	-0.929
657.60	-0.920
657.92	-0.955
658.25	-0.999
658.57	-1.065
658.90	-1.153
659.22	-1.192
659.54	-1.281
659.87	-1.348
660.19	-1.385
660.51	-1.454
660.84	-1.559
661.16	-1.697
661.48	-1.692
661.81	-1.740
662.13	-1.764
662.45	-1.762
662.78	-1.811
663.10	-1.861
663.42	-1.852
663.75	-1.850
664.07	-1.817
664.39	-1.817
664.72	-1.736
665.04	-1.722
665.36	-1.758
665.69	-1.748
666.01	-1.762
666.33	-1.732
666.65	-1.678
666.98	-1.665
667.30	-1.640
667.62	-1.709
667.94	-1.657
668.27	-1.657
668.59	-1.685
668.91	-1.599
669.23	-1.632
669.56	-1.648
669.88	-1.720
670.20	-1.794
670.52	-1.828
670.85	-1.897
671.17	-1.884
671.49	-1.929
671.81	-1.936
672.13	-1.968
672.46	-2.073
672.78	-2.063
673.10	-2.090
673.42	-2.063
673.74	-2.020
674.07	-1.981
674.39	-1.940
674.71	-1.916
675.03	-1.847
675.35	-1.863
675.67	-1.875
676.00	-1.801
676.32	-1.753
676.64	-1.669
676.96	-1.595
677.28	-1.493
677.60	-1.492
677.92	-1.511
678.25	-1.526
678.57	-1.554
678.89	-1.533
679.21	-1.484
679.53	-1.509
679.85	-1.536
680.17	-1.511
680.49	-1.545
680.81	-1.614
681.13	-1.582
681.46	-1.598
681.78	-1.583
682.10	-1.573
682.42	-1.543
682.74	-1.581
683.06	-1.549
683.38	-1.476
683.70	-1.499
684.02	-1.478
684.34	-1.466
684.66	-1.417
684.98	-1.336
685.30	-1.281
685.62	-1.243
685.94	-1.245
686.26	-1.175
686.58	-1.132
686.90	-1.193
687.22	-1.158
687.54	-1.085
687.86	-1.057
688.18	-1.077
688.50	-1.133
688.82	-1.092
689.14	-1.146
689.46	-1.198
689.78	-1.233
690.10	-1.277
690.42	-1.299
690.74	-1.346
691.06	-1.434
691.38	-1.507
691.70	-1.608
692.02	-1.609
692.34	-1.780
692.66	-1.839
692.98	-1.807
693.30	-1.764
693.62	-1.740
693.94	-1.652
694.26	-1.640
694.57	-1.584
694.89	-1.471
695.21	-1.398
695.53	-1.299
695.85	-1.147
696.17	-1.019
696.49	-0.974
696.81	-0.946
697.13	-0.847
697.44	-0.812
697.76	-0.760
698.08	-0.775
698.40	-0.843
698.72	-0.946
699.04	-1.083
699.36	-1.205
699.67	-1.403
699.99	-1.581
700.31	-1.707
700.63	-1.999
700.95	-2.192
701.27	-2.444
701.58	-2.621
701.90	-2.701
702.22	-2.717
702.54	-2.692
702.86	-2.696
703.17	-2.659
703.49	-2.656
703.81	-2.646
704.13	-2.594
704.45	-2.625
704.76	-2.646
705.08	-2.587
705.40	-2.589
705.72	-2.518
706.03	-2.457
706.35	-2.395
706.67	-2.384
706.99	-2.325
707.30	-2.404
707.62	-2.358
707.94	-2.242
708.26	-2.191
708.57	-2.231
708.89	-2.168
709.21	-2.218
709.53	-2.248
709.84	-2.229
710.16	-2.243
710.48	-2.246
710.79	-2.173
711.11	-2.220
711.43	-2.235
711.74	-2.123
712.06	-1.984
712.38	-1.898
712.69	-1.785
713.01	-1.746
713.33	-1.762
713.64	-1.593
713.96	-1.485
714.28	-1.357
714.59	-1.118
714.91	-0.983
715.23	-0.876
715.54	-0.889
715.86	-0.923
716.17	-0.833
716.49	-0.873
716.81	-0.871
717.12	-0.980
717.44	-1.024
717.76	-1.197
718.07	-1.328
718.39	-1.512
718.70	-1.669
719.02	-1.664
719.33	-1.680
719.65	-1.800
719.97	-1.797
720.28	-1.818
720.60	-1.792
720.91	-1.767
721.23	-1.731
721.54	-1.716
721.86	-1.549
722.17	-1.391
722.49	-1.463
722.81	-1.412
723.12	-1.345
723.44	-1.150
723.75	-1.020
724.07	-1.011
724.38	-0.971
724.70	-0.883
725.01	-0.896
725.33	-0.946
725.64	-1.076
725.96	-1.037
726.27	-1.047
726.59	-1.061
726.90	-1.283
727.22	-1.316
727.53	-1.314
727.84	-1.402
728.16	-1.459
728.47	-1.476
728.79	-1.539
729.10	-1.564
729.42	-1.521
729.73	-1.621
730.05	-1.681
730.36	-1.652
730.67	-1.732
730.99	-1.861
731.30	-1.957
731.62	-1.896
731.93	-1.956
732.24	-2.135
732.56	-2.151
732.87	-2.349
733.19	-2.380
733.50	-2.387
733.81	-2.507
734.13	-2.610
734.44	-2.506
734.76	-2.466
735.07	-2.627
735.38	-2.697
735.70	-2.800
736.01	-2.835
736.32	-2.728
736.64	-2.918
736.95	-3.083
737.26	-2.931
737.58	-2.937
737.89	-3.007
738.20	-3.131
738.52	-3.297
738.83	-3.412
739.14	-3.361
739.45	-3.416
739.77	-3.668
740.08	-3.532
740.39	-3.684
740.71	-3.801
741.02	-3.990
741.33	-4.161
741.64	-4.448
741.96	-4.474
742.27	-4.458
742.58	-4.428
742.90	-4.639
743.21	-4.767
743.52	-4.821
743.83	-4.857
744.14	-5.003
744.46	-5.184
744.77	-5.186
745.08	-4.878
745.39	-4.749
745.71	-4.585
746.02	-4.735
746.33	-4.592
746.64	-4.241
746.95	-4.350
747.27	-4.387
747.58	-4.422
747.89	-4.166
748.20	-4.255
748.51	-4.191
748.82	-4.255
749.14	-4.444
749.45	-4.426
749.76	-4.503
750.07	-4.509
750.38	-4.455
750.69	-4.274
751.01	-4.171
751.32	-4.250
751.63	-4.159
751.94	-4.214
752.25	-4.282
752.56	-4.312
752.87	-4.215
753.18	-4.273
753.49	-4.519
753.81	-4.474
754.12	-4.464
754.43	-4.396
754.74	-4.129
755.05	-3.942
755.36	-3.856
755.67	-3.346
755.98	-3.014
756.29	-2.774
756.60	-2.396
756.91	-1.890
757.22	-1.522
757.53	-1.158
757.84	-0.805
758.15	-0.497
758.46	-0.106
758.77	0.327
759.09	0.317
759.40	0.541
759.71	0.770
760.02	0.894
760.33	0.934
760.64	0.914
760.95	0.958
761.26	0.939
761.57	0.838
761.88	0.735
762.18	0.575
762.49	0.572
762.80	0.465
763.11	0.366
763.42	0.176
763.73	-0.105
764.04	-0.301
764.35	-0.497
764.66	-0.843
764.97	-1.009
765.28	-1.406
765.59	-1.870
765.90	-2.334
766.21	-2.728
766.52	-3.220
766.83	-3.343
767.14	-3.479
767.44	-3.891
767.75	-4.313
768.06	-4.473
768.37	-4.836
768.68	-4.855
768.99	-4.699
769.30	-4.808
769.61	-5.105
769.91	-5.266
770.22	-5.618
770.53	-5.714
770.84	-5.649
771.15	-5.745
771.46	-5.666
771.77	-5.632
772.07	-5.959
772.38	-6.196
772.69	-6.296
773.00	-6.548
773.31	-6.311
773.61	-6.418
773.92	-6.233
774.23	-6.281
774.54	-6.351
774.85	-6.510
775.15	-6.598
775.46	-6.373
775.77	-6.281
776.08	-6.135
776.39	-5.890
776.69	-6.000
777.00	-5.780
777.31	-5.980
777.62	-6.042
777.92	-5.588
778.23	-5.611
778.54	-5.783
778.85	-5.603
779.15	-5.478
779.46	-5.611
779.77	-5.334
780.07	-5.306
780.38	-5.408
780.69	-5.469
781.00	-4.979
781.30	-5.361
781.61	-5.300
781.92	-5.203
782.22	-5.331
782.53	-5.536
782.84	-5.507
783.14	-5.563
783.45	-5.637
783.76	-5.565
784.06	-5.514
784.37	-5.481
784.68	-5.212
784.98	-4.906
785.29	-4.437
785.60	-4.155
785.90	-3.538
786.21	-3.306
786.51	-3.081
786.82	-3.049
787.13	-2.828
787.43	-2.674
787.74	-2.614
788.04	-2.412
788.35	-2.464
788.66	-2.559
788.96	-2.691
789.27	-3.088
789.57	-2.822
789.88	-2.981
790.19	-2.717
790.49	-2.552
790.80	-2.516
791.10	-2.682
791.41	-2.863
791.71	-2.870
792.02	-2.984
792.32	-3.159
792.63	-3.040
792.93	-3.452
793.24	-3.395
793.54	-3.351
793.85	-3.574
794.15	-3.373
794.46	-3.196
794.76	-3.083
795.07	-3.031
795.37	-2.975
795.68	-2.581
795.98	-2.797
796.29	-2.444
796.59	-2.406
796.90	-2.338
797.20	-2.149
797.51	-2.205
797.81	-2.202
798.12	-2.388
798.42	-2.173
798.72	-2.004
799.03	-2.052
799.33	-1.788
799.64	-1.975
799.94	-1.669
800.25	-2.076
800.55	-2.226
800.85	-2.472
801.16	-2.515
801.46	-2.340
801.77	-2.430
802.07	-2.577
802.37	-2.699
802.68	-2.437
802.98	-2.001
803.28	-2.233
803.59	-1.695
803.89	-1.806
804.20	-1.391
804.50	-1.195
804.80	-1.110
805.11	-1.323
805.41	-1.151
805.71	-1.215
806.02	-1.646
806.32	-2.252
806.62	-2.438
806.93	-2.373
807.23	-1.735
807.53	-1.555
807.83	-1.809
808.14	-1.819
808.44	-1.622
808.74	-1.440
809.05	-1.155
809.35	-0.651
809.65	-0.473
809.95	-0.428
810.26	-0.531
810.56	-0.384
810.86	-0.607
811.16	-0.164
811.47	-0.027
811.77	0.265
812.07	0.181
812.37	0.181
812.68	0.321
812.98	0.479
813.28	1.039
813.58	1.414
813.88	0.838
814.19	1.428
814.49	1.772
814.79	1.940
815.09	1.555
815.39	1.779
815.70	2.063
816.00	2.071
816.30	2.350
816.60	2.151
816.90	2.014
817.20	2.417
817.50	2.258
817.81	2.132
818.11	2.214
818.41	2.610
818.71	2.735
819.01	2.764
819.31	2.859
819.61	3.051
819.92	3.169
820.22	3.293
820.52	3.312
820.82	3.336
821.12	3.341
821.42	3.338
821.72	3.312
822.02	3.304
822.32	3.267
822.62	3.285
822.92	3.168
823.22	3.099
823.52	3.019
823.83	3.000
824.13	2.924
824.43	2.869
824.73	2.923
825.03	2.898
825.33	2.891
825.63	2.855
825.93	2.742
826.23	2.764
826.53	2.785
826.83	2.808
827.13	2.653
827.43	2.691
827.73	2.720
828.03	2.644
828.33	2.637
828.63	2.346
828.93	2.522
829.23	2.555
829.53	2.524
829.83	2.417
830.13	2.327
830.42	2.308
830.72	2.030
831.02	1.900
831.32	1.816
831.62	1.809
831.92	2.212
832.22	2.017
832.52	2.152
832.82	2.173
833.12	2.258
833.42	2.437
833.72	2.586
834.01	2.763
834.31	2.643
834.61	2.817
834.91	2.645
835.21	2.274
835.51	2.178
835.81	1.618
836.11	1.460
836.40	1.435
836.70	0.749
837.00	0.181
837.30	0.230
837.60	0.475
837.90	0.353
838.19	0.713
838.49	1.066
838.79	1.634
839.09	1.927
839.39	1.556
839.68	1.295
839.98	1.434
840.28	2.167
840.58	1.903
840.88	1.752
841.17	1.157
841.47	1.477
841.77	0.881
842.07	0.572
842.36	1.001
842.66	1.334
842.96	0.927
843.26	0.641
843.55	-0.531
843.85	-1.531
844.15	-2.377
844.45	-3.036
844.74	-4.253
845.04	-3.303
845.34	-4.698
845.63	-5.327
845.93	-4.598
846.23	-3.639
846.53	-3.629
846.82	-2.993
847.12	-2.100
847.42	-1.470
847.71	-0.808
848.01	-0.340
848.31	-0.031
848.60	1.316
848.90	1.393
849.19	1.397
849.49	0.077
849.79	0.722
850.08	1.346
850.38	0.818
850.68	-0.086
850.97	0.565
851.27	-0.086
851.56	-1.282
851.86	-2.469
852.16	-1.840
852.45	-1.477
852.75	-0.693
853.04	-2.853
853.34	-3.665
853.64	-2.692
853.93	-1.608
854.23	-2.414
854.52	-2.331
854.82	-3.411
855.11	-2.258
855.41	-4.264
855.70	-5.474
856.00	-5.941
856.30	-4.667
856.59	-5.646
856.89	-6.972
857.18	-7.118
857.48	-7.949
857.77	-6.494
858.07	-3.192
858.36	-3.001
858.66	-1.806
858.95	-2.162
859.25	-1.293
859.54	-0.690
859.84	1.035
860.13	1.026
860.42	1.796
860.72	3.664
861.01	1.195
861.31	0.259
861.60	1.259
861.90	1.378
862.19	1.334
862.49	0.318
862.78	1.068
863.07	-0.899
863.37	0.254
863.66	-0.661
863.96	-2.329
864.25	0.024
864.54	0.252
864.84	-1.465
865.13	-1.929
865.43	-1.646
865.72	11.154
866.01	5.695
866.31	-2.754
866.60	-6.137
866.89	-5.038
>>>>>End Spectral Data<<<<<
