OOIBase32 Version 2.0.0.6 Data File
++++++++++++++++++++++++++++++++++++
Date: 01-20-2012, 22:34:25
User: Valued Ocean Optics Customer
Spectrometer Serial Number: USB2E2917
Spectrometer Channel: Master
Integration Time (msec): 4
Spectra Averaged: 10
Boxcar Smoothing: 5
Correct for Electrical Dark: Enabled
Time Normalized: Disabled
Dual-beam Reference: Disabled
Reference Channel: Master
Temperature: Not acquired
Spectrometer Type: S2000
ADC Type: USB2000
Number of Pixels in File: 2048
Graph Title: 
>>>>>Begin Spectral Data<<<<<
180.30	0.000
180.67	0.000
181.03	-100.645
181.40	39.089
181.77	34.572
182.14	406.455
182.51	-45.811
182.88	-10.766
183.25	107.166
183.62	82.583
183.99	63.147
184.36	150.218
184.73	97.779
185.10	-93.245
185.46	12.955
185.83	-42.459
186.20	-309.411
186.57	86.270
186.94	-81.628
187.31	47.326
187.68	391.255
188.05	-561.373
188.42	-405.460
188.78	-119.773
189.15	-92.464
189.52	-78.845
189.89	-110.318
190.26	-96.625
190.63	-72.690
191.00	-96.718
191.37	-141.001
191.73	-167.749
192.10	-178.609
192.47	-82.031
192.84	-110.800
193.21	-149.879
193.58	-162.857
193.94	-179.330
194.31	-80.451
194.68	-31.933
195.05	-26.668
195.42	-13.798
195.79	-15.892
196.15	-33.951
196.52	-63.560
196.89	-93.515
197.26	-95.283
197.63	-60.228
198.00	-43.104
198.36	-82.313
198.73	-92.427
199.10	-56.285
199.47	-41.255
199.84	-39.086
200.20	-22.274
200.57	-14.013
200.94	-19.163
201.31	-10.956
201.68	-33.690
202.04	-29.665
202.41	-21.938
202.78	-24.376
203.15	-59.450
203.51	-67.524
203.88	-39.809
204.25	-50.350
204.62	-46.721
204.98	-28.459
205.35	-26.361
205.72	-14.504
206.09	-19.114
206.46	-22.104
206.82	-33.223
207.19	-11.917
207.56	-14.998
207.92	-20.015
208.29	-15.599
208.66	-31.446
209.03	-38.353
209.39	-43.981
209.76	-41.410
210.13	-18.153
210.50	-9.313
210.86	-1.592
211.23	7.395
211.60	-2.443
211.96	-12.492
212.33	-3.871
212.70	1.775
213.07	13.026
213.43	11.058
213.80	12.315
214.17	9.871
214.53	0.365
214.90	-6.585
215.27	-6.354
215.63	1.003
216.00	11.279
216.37	13.369
216.74	4.651
217.10	-5.993
217.47	-9.491
217.84	-25.637
218.20	-29.256
218.57	-25.162
218.94	-17.497
219.30	-22.000
219.67	-23.706
220.04	-24.141
220.40	-33.109
220.77	-28.306
221.13	-23.395
221.50	-14.520
221.87	-3.918
222.23	-8.218
222.60	-2.245
222.97	0.391
223.33	2.620
223.70	2.146
224.07	3.773
224.43	5.098
224.80	3.038
225.16	1.333
225.53	1.273
225.90	-0.697
226.26	0.468
226.63	-1.114
226.99	-2.015
227.36	-1.700
227.73	-1.693
228.09	-2.709
228.46	-3.210
228.82	-2.754
229.19	-2.815
229.56	-4.274
229.92	-4.331
230.29	-4.759
230.65	-3.635
231.02	-4.501
231.38	-6.253
231.75	-6.632
232.12	-5.622
232.48	-4.066
232.85	-3.521
233.21	-3.544
233.58	-3.428
233.94	-1.863
234.31	-2.422
234.68	-3.929
235.04	-2.370
235.41	-1.944
235.77	-1.197
236.14	-2.371
236.50	-3.734
236.87	-2.342
237.23	-1.094
237.60	-0.461
237.96	-0.895
238.33	0.165
238.69	1.099
239.06	0.736
239.42	1.147
239.79	1.366
240.15	1.522
240.52	1.410
240.88	1.331
241.25	1.437
241.61	1.626
241.98	1.886
242.34	1.720
242.71	1.456
243.07	1.504
243.44	1.110
243.80	1.125
244.17	1.088
244.53	1.196
244.90	0.800
245.26	0.871
245.63	0.955
245.99	0.824
246.36	0.881
246.72	0.783
247.09	0.735
247.45	0.705
247.81	0.503
248.18	0.628
248.54	0.511
248.91	0.626
249.27	0.301
249.64	0.056
250.00	-0.007
250.36	-0.041
250.73	-0.326
251.09	-0.279
251.46	0.140
251.82	-0.046
252.19	-0.067
252.55	0.251
252.91	0.297
253.28	0.426
253.64	0.387
254.01	0.590
254.37	0.632
254.73	1.218
255.10	1.455
255.46	1.317
255.83	1.605
256.19	1.532
256.55	1.541
256.92	1.793
257.28	1.695
257.65	1.697
258.01	1.564
258.37	1.449
258.74	1.460
259.10	1.233
259.46	1.283
259.83	1.104
260.19	1.161
260.55	1.259
260.92	1.075
261.28	1.014
261.64	0.964
262.01	0.988
262.37	1.178
262.73	0.823
263.10	0.877
263.46	0.864
263.82	1.303
264.19	0.986
264.55	0.816
264.91	0.798
265.28	1.040
265.64	1.167
266.00	1.203
266.37	1.008
266.73	1.298
267.09	1.218
267.46	1.310
267.82	1.132
268.18	1.137
268.54	1.144
268.91	1.126
269.27	0.930
269.63	0.853
270.00	0.757
270.36	0.797
270.72	0.604
271.08	0.531
271.45	0.315
271.81	0.382
272.17	0.655
272.53	0.660
272.90	0.570
273.26	0.771
273.62	0.817
273.98	0.906
274.35	1.022
274.71	1.352
275.07	1.502
275.43	1.476
275.80	1.494
276.16	1.115
276.52	1.106
276.88	0.933
277.25	0.604
277.61	0.596
277.97	0.524
278.33	0.536
278.69	0.454
279.06	0.517
279.42	0.457
279.78	0.585
280.14	0.924
280.50	0.983
280.87	1.108
281.23	1.202
281.59	1.184
281.95	1.228
282.31	1.220
282.68	1.069
283.04	1.128
283.40	1.218
283.76	1.003
284.12	0.888
284.48	0.794
284.85	0.741
285.21	0.784
285.57	0.749
285.93	0.777
286.29	0.722
286.65	0.778
287.02	0.654
287.38	0.612
287.74	0.671
288.10	0.604
288.46	0.684
288.82	0.920
289.18	0.908
289.54	1.054
289.91	1.045
290.27	0.884
290.63	0.936
290.99	1.167
291.35	1.212
291.71	1.153
292.07	1.451
292.43	1.423
292.79	1.199
293.16	1.161
293.52	0.953
293.88	0.937
294.24	1.290
294.60	1.282
294.96	1.186
295.32	1.296
295.68	1.334
296.04	1.178
296.40	1.202
296.76	1.315
297.12	1.409
297.49	1.531
297.85	1.660
298.21	1.529
298.57	1.616
298.93	1.793
299.29	2.035
299.65	2.253
300.01	2.433
300.37	2.628
300.73	2.587
301.09	2.574
301.45	2.585
301.81	2.663
302.17	2.691
302.53	2.741
302.89	2.776
303.25	2.468
303.61	2.301
303.97	2.206
304.33	2.028
304.69	2.212
305.05	2.195
305.41	2.168
305.77	2.074
306.13	2.136
306.49	2.062
306.85	1.945
307.21	2.066
307.57	2.227
307.93	2.280
308.29	2.278
308.65	2.295
309.01	2.364
309.37	2.567
309.73	2.573
310.09	2.574
310.45	2.641
310.81	2.619
311.17	2.562
311.53	2.518
311.89	2.494
312.25	2.608
312.61	2.510
312.96	2.524
313.32	2.400
313.68	2.380
314.04	2.345
314.40	2.294
314.76	2.450
315.12	2.533
315.48	2.511
315.84	2.621
316.20	2.572
316.56	2.663
316.92	2.721
317.27	2.672
317.63	2.685
317.99	2.722
318.35	2.690
318.71	2.665
319.07	2.789
319.43	2.787
319.79	2.739
320.15	2.692
320.50	2.673
320.86	2.654
321.22	2.678
321.58	2.621
321.94	2.489
322.30	2.502
322.66	2.473
323.01	2.335
323.37	2.315
323.73	2.236
324.09	2.254
324.45	2.222
324.81	2.184
325.17	2.196
325.52	2.174
325.88	2.209
326.24	2.172
326.60	2.097
326.96	2.060
327.31	1.995
327.67	2.052
328.03	2.098
328.39	2.108
328.75	2.067
329.11	2.093
329.46	2.262
329.82	2.354
330.18	2.401
330.54	2.418
330.90	2.431
331.25	2.430
331.61	2.385
331.97	2.319
332.33	2.296
332.68	2.220
333.04	2.137
333.40	2.083
333.76	2.011
334.11	1.957
334.47	1.944
334.83	1.909
335.19	1.909
335.54	1.960
335.90	1.997
336.26	1.960
336.62	2.024
336.97	2.009
337.33	1.908
337.69	1.926
338.05	1.961
338.40	1.927
338.76	1.923
339.12	1.958
339.48	1.831
339.83	1.719
340.19	1.687
340.55	1.706
340.90	1.727
341.26	1.713
341.62	1.664
341.97	1.643
342.33	1.658
342.69	1.672
343.04	1.540
343.40	1.506
343.76	1.602
344.12	1.594
344.47	1.578
344.83	1.531
345.19	1.598
345.54	1.587
345.90	1.632
346.26	1.664
346.61	1.588
346.97	1.668
347.32	1.788
347.68	1.784
348.04	1.859
348.39	1.770
348.75	1.729
349.11	1.669
349.46	1.632
349.82	1.581
350.18	1.515
350.53	1.489
350.89	1.468
351.24	1.390
351.60	1.289
351.96	1.165
352.31	1.252
352.67	1.285
353.02	1.258
353.38	1.255
353.74	1.314
354.09	1.235
354.45	1.327
354.80	1.303
355.16	1.366
355.52	1.403
355.87	1.441
356.23	1.360
356.58	1.396
356.94	1.430
357.29	1.436
357.65	1.378
358.00	1.481
358.36	1.441
358.72	1.480
359.07	1.419
359.43	1.388
359.78	1.371
360.14	1.340
360.49	1.258
360.85	1.219
361.20	1.186
361.56	1.159
361.91	1.087
362.27	1.055
362.62	0.986
362.98	0.964
363.33	0.948
363.69	0.943
364.04	0.939
364.40	0.917
364.75	0.933
365.11	0.935
365.46	0.912
365.82	0.853
366.17	0.871
366.53	0.917
366.88	0.899
367.24	0.840
367.59	0.808
367.95	0.788
368.30	0.793
368.66	0.760
369.01	0.755
369.37	0.795
369.72	0.869
370.08	0.843
370.43	0.831
370.78	0.838
371.14	0.913
371.49	0.917
371.85	0.917
372.20	0.937
372.56	0.955
372.91	0.908
373.26	0.855
373.62	0.851
373.97	0.850
374.33	0.823
374.68	0.768
375.03	0.727
375.39	0.720
375.74	0.736
376.10	0.737
376.45	0.713
376.80	0.725
377.16	0.697
377.51	0.681
377.87	0.671
378.22	0.695
378.57	0.711
378.93	0.761
379.28	0.800
379.63	0.836
379.99	0.851
380.34	0.844
380.70	0.899
381.05	0.924
381.40	0.969
381.76	1.023
382.11	1.023
382.46	1.093
382.82	1.086
383.17	1.128
383.52	1.120
383.88	1.138
384.23	1.143
384.58	1.141
384.94	1.131
385.29	1.069
385.64	0.994
385.99	0.969
386.35	0.909
386.70	0.870
387.05	0.846
387.41	0.822
387.76	0.820
388.11	0.846
388.47	0.837
388.82	0.842
389.17	0.869
389.52	0.922
389.88	0.933
390.23	0.985
390.58	1.024
390.93	1.029
391.29	1.030
391.64	1.003
391.99	0.989
392.34	0.990
392.70	1.016
393.05	0.984
393.40	0.985
393.75	0.977
394.11	0.946
394.46	0.855
394.81	0.798
395.16	0.775
395.52	0.722
395.87	0.681
396.22	0.599
396.57	0.546
396.92	0.499
397.28	0.464
397.63	0.392
397.98	0.341
398.33	0.355
398.68	0.349
399.04	0.331
399.39	0.312
399.74	0.269
400.09	0.255
400.44	0.222
400.80	0.248
401.15	0.198
401.50	0.224
401.85	0.214
402.20	0.222
402.55	0.208
402.90	0.199
403.26	0.200
403.61	0.225
403.96	0.268
404.31	0.292
404.66	0.268
405.01	0.262
405.36	0.231
405.72	0.225
406.07	0.184
406.42	0.173
406.77	0.166
407.12	0.153
407.47	0.127
407.82	0.065
408.17	0.043
408.53	0.038
408.88	0.028
409.23	0.004
409.58	-0.035
409.93	-0.046
410.28	-0.072
410.63	-0.124
410.98	-0.125
411.33	-0.132
411.68	-0.125
412.03	-0.130
412.38	-0.106
412.73	-0.057
413.09	-0.011
413.44	0.043
413.79	0.108
414.14	0.158
414.49	0.221
414.84	0.263
415.19	0.314
415.54	0.385
415.89	0.450
416.24	0.477
416.59	0.501
416.94	0.549
417.29	0.588
417.64	0.623
417.99	0.656
418.34	0.681
418.69	0.713
419.04	0.738
419.39	0.744
419.74	0.758
420.09	0.782
420.44	0.799
420.79	0.810
421.14	0.809
421.49	0.801
421.84	0.787
422.19	0.784
422.54	0.770
422.89	0.764
423.24	0.754
423.59	0.724
423.94	0.690
424.29	0.659
424.64	0.615
424.99	0.589
425.34	0.538
425.68	0.504
426.03	0.479
426.38	0.445
426.73	0.380
427.08	0.348
427.43	0.319
427.78	0.324
428.13	0.331
428.48	0.351
428.83	0.346
429.18	0.383
429.53	0.391
429.87	0.383
430.22	0.382
430.57	0.415
430.92	0.418
431.27	0.426
431.62	0.438
431.97	0.416
432.32	0.399
432.67	0.368
433.01	0.342
433.36	0.323
433.71	0.320
434.06	0.293
434.41	0.285
434.76	0.272
435.11	0.273
435.45	0.265
435.80	0.296
436.15	0.325
436.50	0.360
436.85	0.392
437.20	0.428
437.54	0.445
437.89	0.491
438.24	0.498
438.59	0.506
438.94	0.506
439.29	0.504
439.63	0.474
439.98	0.453
440.33	0.462
440.68	0.451
441.03	0.440
441.37	0.436
441.72	0.451
442.07	0.464
442.42	0.483
442.76	0.505
443.11	0.528
443.46	0.555
443.81	0.581
444.16	0.585
444.50	0.592
444.85	0.584
445.20	0.585
445.55	0.552
445.89	0.518
446.24	0.479
446.59	0.449
446.94	0.390
447.28	0.337
447.63	0.268
447.98	0.206
448.32	0.154
448.67	0.116
449.02	0.070
449.37	0.042
449.71	0.036
450.06	0.028
450.41	0.013
450.75	0.036
451.10	0.070
451.45	0.067
451.79	0.060
452.14	0.051
452.49	0.037
452.84	0.050
453.18	0.034
453.53	0.017
453.88	0.034
454.22	0.030
454.57	0.030
454.92	0.037
455.26	0.065
455.61	0.133
455.95	0.179
456.30	0.238
456.65	0.257
456.99	0.299
457.34	0.333
457.69	0.357
458.03	0.385
458.38	0.395
458.73	0.371
459.07	0.379
459.42	0.332
459.76	0.296
460.11	0.246
460.46	0.193
460.80	0.150
461.15	0.090
461.49	0.038
461.84	-0.002
462.19	-0.055
462.53	-0.045
462.88	-0.073
463.22	-0.079
463.57	-0.058
463.91	-0.054
464.26	-0.032
464.61	-0.023
464.95	-0.012
465.30	-0.002
465.64	-0.011
465.99	0.004
466.33	-0.029
466.68	-0.057
467.02	-0.061
467.37	-0.098
467.71	-0.115
468.06	-0.110
468.41	-0.124
468.75	-0.127
469.10	-0.157
469.44	-0.170
469.79	-0.195
470.13	-0.216
470.48	-0.223
470.82	-0.233
471.17	-0.244
471.51	-0.239
471.86	-0.272
472.20	-0.305
472.55	-0.332
472.89	-0.358
473.23	-0.379
473.58	-0.409
473.92	-0.392
474.27	-0.387
474.61	-0.389
474.96	-0.389
475.30	-0.404
475.65	-0.394
475.99	-0.377
476.34	-0.364
476.68	-0.336
477.02	-0.319
477.37	-0.290
477.71	-0.262
478.06	-0.206
478.40	-0.133
478.75	-0.020
479.09	0.095
479.43	0.219
479.78	0.331
480.12	0.435
480.47	0.528
480.81	0.619
481.15	0.702
481.50	0.769
481.84	0.826
482.19	0.894
482.53	0.937
482.87	0.975
483.22	0.976
483.56	0.972
483.90	0.956
484.25	0.925
484.59	0.884
484.94	0.848
485.28	0.810
485.62	0.768
485.97	0.708
486.31	0.659
486.65	0.610
487.00	0.579
487.34	0.546
487.68	0.517
488.03	0.499
488.37	0.476
488.71	0.451
489.06	0.434
489.40	0.411
489.74	0.384
490.09	0.352
490.43	0.316
490.77	0.284
491.11	0.241
491.46	0.191
491.80	0.136
492.14	0.087
492.49	0.020
492.83	-0.055
493.17	-0.125
493.51	-0.185
493.86	-0.242
494.20	-0.290
494.54	-0.318
494.88	-0.332
495.23	-0.332
495.57	-0.333
495.91	-0.321
496.25	-0.326
496.60	-0.340
496.94	-0.332
497.28	-0.350
497.62	-0.364
497.97	-0.393
498.31	-0.434
498.65	-0.443
498.99	-0.462
499.33	-0.478
499.68	-0.516
500.02	-0.508
500.36	-0.496
500.70	-0.525
501.04	-0.529
501.39	-0.534
501.73	-0.516
502.07	-0.490
502.41	-0.494
502.75	-0.502
503.09	-0.495
503.44	-0.475
503.78	-0.476
504.12	-0.460
504.46	-0.429
504.80	-0.402
505.14	-0.388
505.49	-0.354
505.83	-0.347
506.17	-0.342
506.51	-0.311
506.85	-0.300
507.19	-0.288
507.53	-0.278
507.87	-0.269
508.22	-0.287
508.56	-0.300
508.90	-0.295
509.24	-0.318
509.58	-0.321
509.92	-0.331
510.26	-0.354
510.60	-0.361
510.94	-0.389
511.28	-0.398
511.63	-0.405
511.97	-0.398
512.31	-0.406
512.65	-0.411
512.99	-0.390
513.33	-0.372
513.67	-0.332
514.01	-0.305
514.35	-0.263
514.69	-0.195
515.03	-0.143
515.37	-0.109
515.71	-0.058
516.05	-0.007
516.39	0.033
516.73	0.047
517.07	0.060
517.41	0.057
517.75	0.068
518.09	0.045
518.43	0.013
518.77	-0.009
519.11	-0.047
519.45	-0.091
519.79	-0.118
520.13	-0.152
520.47	-0.178
520.81	-0.193
521.15	-0.180
521.49	-0.189
521.83	-0.168
522.17	-0.142
522.51	-0.096
522.85	-0.030
523.19	0.054
523.53	0.128
523.87	0.230
524.21	0.327
524.55	0.409
524.89	0.475
525.23	0.556
525.57	0.613
525.91	0.670
526.25	0.711
526.58	0.745
526.92	0.769
527.26	0.786
527.60	0.779
527.94	0.771
528.28	0.756
528.62	0.748
528.96	0.730
529.30	0.704
529.64	0.673
529.97	0.643
530.31	0.611
530.65	0.579
530.99	0.563
531.33	0.550
531.67	0.541
532.01	0.534
532.35	0.516
532.68	0.495
533.02	0.487
533.36	0.472
533.70	0.445
534.04	0.428
534.38	0.409
534.71	0.376
535.05	0.344
535.39	0.323
535.73	0.302
536.07	0.295
536.41	0.314
536.74	0.332
537.08	0.350
537.42	0.388
537.76	0.429
538.10	0.468
538.43	0.502
538.77	0.548
539.11	0.582
539.45	0.612
539.79	0.626
540.12	0.636
540.46	0.654
540.80	0.651
541.14	0.651
541.47	0.637
541.81	0.615
542.15	0.595
542.49	0.564
542.82	0.525
543.16	0.498
543.50	0.468
543.84	0.427
544.17	0.393
544.51	0.369
544.85	0.339
545.18	0.313
545.52	0.292
545.86	0.264
546.20	0.237
546.53	0.198
546.87	0.153
547.21	0.098
547.54	0.061
547.88	0.027
548.22	0.001
548.55	-0.017
548.89	-0.030
549.23	-0.049
549.56	-0.037
549.90	-0.042
550.24	-0.022
550.57	-0.006
550.91	0.009
551.25	0.026
551.58	0.016
551.92	0.017
552.26	0.002
552.59	-0.016
552.93	-0.030
553.27	-0.059
553.60	-0.077
553.94	-0.086
554.27	-0.108
554.61	-0.101
554.95	-0.101
555.28	-0.099
555.62	-0.080
555.95	-0.076
556.29	-0.079
556.63	-0.045
556.96	-0.052
557.30	-0.035
557.63	-0.059
557.97	-0.037
558.31	-0.039
558.64	-0.044
558.98	-0.049
559.31	-0.047
559.65	-0.036
559.98	-0.013
560.32	-0.007
560.65	0.026
560.99	0.033
561.33	0.064
561.66	0.083
562.00	0.109
562.33	0.128
562.67	0.146
563.00	0.154
563.34	0.181
563.67	0.182
564.01	0.195
564.34	0.206
564.68	0.230
565.01	0.248
565.35	0.238
565.68	0.228
566.02	0.216
566.35	0.240
566.69	0.260
567.02	0.258
567.36	0.276
567.69	0.287
568.03	0.321
568.36	0.324
568.69	0.340
569.03	0.348
569.36	0.365
569.70	0.391
570.03	0.393
570.37	0.388
570.70	0.415
571.04	0.426
571.37	0.412
571.70	0.393
572.04	0.391
572.37	0.405
572.71	0.397
573.04	0.412
573.37	0.409
573.71	0.394
574.04	0.384
574.38	0.346
574.71	0.344
575.04	0.341
575.38	0.339
575.71	0.308
576.05	0.258
576.38	0.228
576.71	0.199
577.05	0.176
577.38	0.176
577.71	0.155
578.05	0.149
578.38	0.113
578.71	0.079
579.05	0.048
579.38	0.072
579.71	0.058
580.05	0.083
580.38	0.060
580.71	0.053
581.05	0.046
581.38	0.067
581.71	0.052
582.05	0.053
582.38	0.075
582.71	0.087
583.04	0.084
583.38	0.113
583.71	0.133
584.04	0.183
584.38	0.207
584.71	0.196
585.04	0.206
585.37	0.263
585.71	0.280
586.04	0.302
586.37	0.318
586.70	0.327
587.04	0.352
587.37	0.368
587.70	0.369
588.03	0.365
588.37	0.378
588.70	0.380
589.03	0.389
589.36	0.391
589.69	0.380
590.03	0.399
590.36	0.416
590.69	0.394
591.02	0.393
591.35	0.382
591.69	0.379
592.02	0.398
592.35	0.398
592.68	0.392
593.01	0.401
593.35	0.432
593.68	0.434
594.01	0.438
594.34	0.451
594.67	0.472
595.00	0.477
595.34	0.493
595.67	0.489
596.00	0.487
596.33	0.462
596.66	0.445
596.99	0.403
597.32	0.380
597.65	0.347
597.99	0.320
598.32	0.284
598.65	0.256
598.98	0.261
599.31	0.251
599.64	0.260
599.97	0.279
600.30	0.304
600.63	0.326
600.96	0.344
601.30	0.385
601.63	0.417
601.96	0.427
602.29	0.462
602.62	0.462
602.95	0.450
603.28	0.436
603.61	0.424
603.94	0.421
604.27	0.406
604.60	0.407
604.93	0.368
605.26	0.357
605.59	0.358
605.92	0.334
606.25	0.321
606.58	0.328
606.91	0.373
607.24	0.379
607.57	0.393
607.90	0.398
608.23	0.386
608.56	0.430
608.89	0.411
609.22	0.393
609.55	0.374
609.88	0.356
610.21	0.348
610.54	0.289
610.87	0.252
611.20	0.208
611.53	0.201
611.86	0.195
612.19	0.118
612.52	0.106
612.85	0.111
613.18	0.098
613.51	0.084
613.84	0.085
614.17	0.086
614.49	0.098
614.82	0.115
615.15	0.088
615.48	0.034
615.81	0.023
616.14	-0.002
616.47	-0.047
616.80	-0.048
617.13	-0.041
617.46	-0.037
617.78	-0.039
618.11	-0.053
618.44	-0.087
618.77	-0.070
619.10	-0.034
619.43	-0.009
619.76	0.037
620.09	0.069
620.41	0.067
620.74	0.067
621.07	0.055
621.40	0.057
621.73	0.082
622.06	0.111
622.38	0.141
622.71	0.157
623.04	0.181
623.37	0.166
623.70	0.170
624.02	0.226
624.35	0.233
624.68	0.259
625.01	0.251
625.34	0.236
625.66	0.235
625.99	0.206
626.32	0.195
626.65	0.185
626.98	0.203
627.30	0.192
627.63	0.133
627.96	0.090
628.29	0.054
628.61	0.069
628.94	0.058
629.27	0.047
629.60	0.056
629.92	0.040
630.25	0.023
630.58	-0.027
630.91	-0.038
631.23	-0.030
631.56	0.015
631.89	0.026
632.21	0.022
632.54	0.048
632.87	0.054
633.19	0.066
633.52	0.070
633.85	0.069
634.18	0.079
634.50	0.099
634.83	0.089
635.16	0.047
635.48	0.024
635.81	-0.019
636.14	-0.086
636.46	-0.127
636.79	-0.177
637.11	-0.195
637.44	-0.233
637.77	-0.243
638.09	-0.295
638.42	-0.336
638.75	-0.360
639.07	-0.352
639.40	-0.351
639.73	-0.352
640.05	-0.368
640.38	-0.405
640.70	-0.445
641.03	-0.459
641.36	-0.437
641.68	-0.434
642.01	-0.396
642.33	-0.400
642.66	-0.424
642.98	-0.463
643.31	-0.464
643.64	-0.468
643.96	-0.424
644.29	-0.428
644.61	-0.402
644.94	-0.417
645.26	-0.410
645.59	-0.423
645.91	-0.386
646.24	-0.353
646.56	-0.297
646.89	-0.285
647.22	-0.252
647.54	-0.265
647.87	-0.248
648.19	-0.266
648.52	-0.280
648.84	-0.314
649.17	-0.315
649.49	-0.358
649.82	-0.387
650.14	-0.445
650.47	-0.496
650.79	-0.576
651.11	-0.599
651.44	-0.608
651.76	-0.645
652.09	-0.685
652.41	-0.679
652.74	-0.733
653.06	-0.706
653.39	-0.774
653.71	-0.773
654.04	-0.704
654.36	-0.670
654.68	-0.681
655.01	-0.703
655.33	-0.694
655.66	-0.720
655.98	-0.743
656.30	-0.725
656.63	-0.756
656.95	-0.718
657.28	-0.714
657.60	-0.766
657.92	-0.778
658.25	-0.780
658.57	-0.778
658.90	-0.809
659.22	-0.818
659.54	-0.841
659.87	-0.946
660.19	-1.053
660.51	-1.183
660.84	-1.299
661.16	-1.370
661.48	-1.463
661.81	-1.565
662.13	-1.692
662.45	-1.744
662.78	-1.810
663.10	-1.858
663.42	-1.820
663.75	-1.793
664.07	-1.813
664.39	-1.841
664.72	-1.879
665.04	-1.874
665.36	-1.907
665.69	-1.904
666.01	-1.973
666.33	-2.014
666.65	-2.063
666.98	-2.111
667.30	-2.135
667.62	-2.143
667.94	-2.112
668.27	-2.172
668.59	-2.237
668.91	-2.306
669.23	-2.374
669.56	-2.408
669.88	-2.474
670.20	-2.523
670.52	-2.584
670.85	-2.656
671.17	-2.692
671.49	-2.764
671.81	-2.816
672.13	-2.879
672.46	-2.875
672.78	-2.916
673.10	-3.009
673.42	-3.047
673.74	-3.146
674.07	-3.181
674.39	-3.253
674.71	-3.295
675.03	-3.370
675.35	-3.327
675.67	-3.282
676.00	-3.257
676.32	-3.232
676.64	-3.146
676.96	-3.119
677.28	-3.006
677.60	-2.976
677.92	-2.923
678.25	-2.915
678.57	-2.884
678.89	-2.890
679.21	-2.882
679.53	-2.996
679.85	-3.012
680.17	-3.094
680.49	-3.149
680.81	-3.278
681.13	-3.308
681.46	-3.386
681.78	-3.464
682.10	-3.543
682.42	-3.635
682.74	-3.777
683.06	-3.656
683.38	-3.708
683.70	-3.658
684.02	-3.609
684.34	-3.562
684.66	-3.544
684.98	-3.472
685.30	-3.398
685.62	-3.308
685.94	-3.273
686.26	-3.222
686.58	-3.322
686.90	-3.331
687.22	-3.387
687.54	-3.481
687.86	-3.557
688.18	-3.684
688.50	-3.850
688.82	-3.995
689.14	-4.140
689.46	-4.241
689.78	-4.377
690.10	-4.508
690.42	-4.604
690.74	-4.710
691.06	-4.809
691.38	-4.904
691.70	-4.937
692.02	-5.001
692.34	-5.046
692.66	-5.206
692.98	-5.355
693.30	-5.367
693.62	-5.321
693.94	-5.345
694.26	-5.282
694.57	-5.242
694.89	-5.088
695.21	-5.017
695.53	-4.895
695.85	-4.772
696.17	-4.578
696.49	-4.435
696.81	-4.349
697.13	-4.287
697.44	-4.260
697.76	-4.314
698.08	-4.331
698.40	-4.496
698.72	-4.704
699.04	-4.913
699.36	-5.158
699.67	-5.470
699.99	-5.898
700.31	-6.282
700.63	-6.720
700.95	-7.116
701.27	-7.508
701.58	-7.956
701.90	-8.316
702.22	-8.542
702.54	-8.836
702.86	-9.130
703.17	-9.366
703.49	-9.388
703.81	-9.589
704.13	-9.738
704.45	-9.815
704.76	-9.918
705.08	-9.921
705.40	-9.948
705.72	-9.977
706.03	-9.940
706.35	-9.985
706.67	-9.965
706.99	-10.003
707.30	-9.970
707.62	-10.055
707.94	-10.107
708.26	-10.013
708.57	-9.961
708.89	-9.957
709.21	-10.005
709.53	-9.968
709.84	-9.936
710.16	-9.947
710.48	-9.960
710.79	-9.974
711.11	-9.761
711.43	-9.711
711.74	-9.660
712.06	-9.564
712.38	-9.461
712.69	-9.376
713.01	-9.258
713.33	-9.070
713.64	-8.782
713.96	-8.528
714.28	-8.170
714.59	-8.008
714.91	-7.637
715.23	-7.332
715.54	-7.133
715.86	-6.950
716.17	-6.735
716.49	-6.697
716.81	-6.647
717.12	-6.768
717.44	-6.883
717.76	-7.230
718.07	-7.414
718.39	-7.844
718.70	-8.333
719.02	-8.893
719.33	-9.246
719.65	-9.656
719.97	-10.075
720.28	-10.315
720.60	-10.495
720.91	-10.472
721.23	-10.449
721.54	-10.435
721.86	-10.359
722.17	-10.229
722.49	-9.942
722.81	-9.773
723.12	-9.715
723.44	-9.499
723.75	-9.420
724.07	-9.421
724.38	-9.654
724.70	-9.645
725.01	-9.733
725.33	-9.701
725.64	-9.646
725.96	-9.600
726.27	-9.705
726.59	-9.649
726.90	-9.621
727.22	-9.548
727.53	-9.494
727.84	-9.341
728.16	-9.443
728.47	-9.442
728.79	-9.660
729.10	-9.870
729.42	-10.228
729.73	-10.592
730.05	-10.948
730.36	-11.320
730.67	-11.824
730.99	-12.265
731.30	-12.755
731.62	-13.193
731.93	-13.677
732.24	-14.052
732.56	-14.637
732.87	-15.059
733.19	-15.496
733.50	-15.843
733.81	-16.320
734.13	-16.694
734.44	-17.257
734.76	-17.669
735.07	-18.054
735.38	-18.556
735.70	-18.949
736.01	-19.419
736.32	-19.688
736.64	-19.860
736.95	-20.234
737.26	-20.466
737.58	-21.036
737.89	-21.136
738.20	-21.601
738.52	-21.998
738.83	-22.318
739.14	-22.898
739.45	-23.367
739.77	-23.968
740.08	-24.715
740.39	-25.155
740.71	-25.871
741.02	-26.397
741.33	-27.141
741.64	-27.722
741.96	-28.337
742.27	-28.937
742.58	-29.536
742.90	-29.828
743.21	-30.144
743.52	-30.359
743.83	-30.926
744.14	-31.101
744.46	-31.332
744.77	-31.660
745.08	-31.911
745.39	-31.782
745.71	-31.721
746.02	-31.582
746.33	-31.467
746.64	-31.757
746.95	-31.636
747.27	-31.467
747.58	-31.215
747.89	-31.148
748.20	-31.106
748.51	-30.808
748.82	-30.825
749.14	-30.987
749.45	-30.999
749.76	-31.372
750.07	-31.310
750.38	-31.470
750.69	-31.702
751.01	-32.160
751.32	-32.381
751.63	-32.369
751.94	-32.441
752.25	-32.444
752.56	-32.538
752.87	-33.035
753.18	-32.900
753.49	-32.983
753.81	-32.943
754.12	-32.449
754.43	-31.983
754.74	-30.947
755.05	-29.885
755.36	-28.633
755.67	-27.577
755.98	-25.766
756.29	-23.753
756.60	-21.906
756.91	-20.134
757.22	-18.104
757.53	-16.221
757.84	-14.185
758.15	-12.362
758.46	-10.675
758.77	-9.383
759.09	-7.811
759.40	-6.895
759.71	-6.083
760.02	-5.559
760.33	-5.001
760.64	-4.847
760.95	-4.837
761.26	-4.821
761.57	-5.062
761.88	-5.474
762.18	-5.889
762.49	-6.517
762.80	-7.170
763.11	-7.943
763.42	-8.758
763.73	-9.909
764.04	-11.109
764.35	-12.441
764.66	-14.133
764.97	-15.954
765.28	-17.989
765.59	-20.187
765.90	-22.819
766.21	-25.442
766.52	-27.721
766.83	-30.082
767.14	-31.969
767.44	-33.722
767.75	-35.797
768.06	-37.532
768.37	-38.911
768.68	-40.607
768.99	-41.884
769.30	-42.991
769.61	-44.097
769.91	-45.146
770.22	-45.985
770.53	-46.468
770.84	-47.745
771.15	-48.098
771.46	-48.902
771.77	-49.798
772.07	-49.331
772.38	-49.633
772.69	-50.157
773.00	-50.372
773.31	-50.852
773.61	-51.754
773.92	-52.331
774.23	-51.596
774.54	-52.344
774.85	-51.722
775.15	-51.598
775.46	-52.119
775.77	-51.919
776.08	-51.091
776.39	-50.885
776.69	-50.529
777.00	-49.780
777.31	-49.536
777.62	-49.563
777.92	-48.741
778.23	-50.087
778.54	-49.450
778.85	-49.411
779.15	-49.585
779.46	-49.924
779.77	-50.440
780.07	-50.905
780.38	-51.420
780.69	-51.952
781.00	-52.470
781.30	-52.685
781.61	-52.103
781.92	-53.436
782.22	-53.577
782.53	-53.242
782.84	-53.242
783.14	-52.214
783.45	-51.340
783.76	-50.265
784.06	-49.006
784.37	-47.619
784.68	-46.381
784.98	-44.578
785.29	-42.598
785.60	-40.963
785.90	-39.755
786.21	-38.269
786.51	-36.716
786.82	-35.406
787.13	-34.511
787.43	-34.085
787.74	-33.455
788.04	-33.308
788.35	-33.781
788.66	-34.084
788.96	-35.043
789.27	-35.132
789.57	-36.109
789.88	-37.738
790.19	-38.532
790.49	-39.259
790.80	-40.054
791.10	-40.833
791.41	-40.635
791.71	-40.123
792.02	-39.889
792.32	-38.983
792.63	-38.462
792.93	-37.342
793.24	-36.239
793.54	-35.761
793.85	-34.847
794.15	-33.338
794.46	-32.821
794.76	-32.827
795.07	-32.372
795.37	-32.499
795.68	-31.403
795.98	-32.244
796.29	-32.238
796.59	-32.164
796.90	-32.233
797.20	-31.832
797.51	-32.445
797.81	-32.684
798.12	-33.080
798.42	-33.324
798.72	-32.372
799.03	-33.773
799.33	-32.711
799.64	-32.800
799.94	-33.036
800.25	-32.916
800.55	-33.435
800.85	-33.432
801.16	-33.006
801.46	-32.278
801.77	-31.795
802.07	-32.594
802.37	-31.706
802.68	-32.650
802.98	-32.870
803.28	-32.482
803.59	-32.376
803.89	-32.520
804.20	-32.555
804.50	-33.101
804.80	-33.667
805.11	-34.100
805.41	-33.579
805.71	-33.747
806.02	-32.670
806.32	-33.115
806.62	-33.537
806.93	-33.914
807.23	-34.166
807.53	-34.271
807.83	-33.838
808.14	-33.340
808.44	-32.924
808.74	-33.254
809.05	-32.461
809.35	-32.511
809.65	-31.315
809.95	-30.004
810.26	-28.584
810.56	-27.227
810.86	-25.680
811.16	-24.861
811.47	-24.032
811.77	-23.656
812.07	-22.480
812.37	-21.770
812.68	-21.013
812.98	-19.562
813.28	-19.399
813.58	-18.819
813.88	-18.150
814.19	-17.466
814.49	-16.386
814.79	-15.415
815.09	-14.053
815.39	-13.424
815.70	-13.447
816.00	-13.423
816.30	-13.342
816.60	-12.936
816.90	-12.472
817.20	-11.641
817.50	-10.723
817.81	-9.009
818.11	-7.491
818.41	-6.257
818.71	-5.061
819.01	-3.803
819.31	-2.835
819.61	-2.153
819.92	-1.441
820.22	-0.975
820.52	-0.556
820.82	-0.184
821.12	0.046
821.42	0.219
821.72	0.357
822.02	0.394
822.32	0.343
822.62	0.254
822.92	0.136
823.22	-0.056
823.52	-0.234
823.83	-0.407
824.13	-0.628
824.43	-0.907
824.73	-1.281
825.03	-1.682
825.33	-2.025
825.63	-2.209
825.93	-2.309
826.23	-2.507
826.53	-2.641
826.83	-2.773
827.13	-3.051
827.43	-3.281
827.73	-3.650
828.03	-3.830
828.33	-4.195
828.63	-4.526
828.93	-5.556
829.23	-6.235
829.53	-6.705
829.83	-7.318
830.13	-7.881
830.42	-8.236
830.72	-8.351
831.02	-8.353
831.32	-7.991
831.62	-7.518
831.92	-7.386
832.22	-6.731
832.52	-6.912
832.82	-6.857
833.12	-6.743
833.42	-6.918
833.72	-7.276
834.01	-7.924
834.31	-7.981
834.61	-9.168
834.91	-10.145
835.21	-10.652
835.51	-11.736
835.81	-12.638
836.11	-13.706
836.40	-15.556
836.70	-16.840
837.00	-17.936
837.30	-18.809
837.60	-21.039
837.90	-20.683
838.19	-20.773
838.49	-21.882
838.79	-22.955
839.09	-23.235
839.39	-24.639
839.68	-25.007
839.98	-25.412
840.28	-27.067
840.58	-28.767
840.88	-31.334
841.17	-33.962
841.47	-38.577
841.77	-40.900
842.07	-44.304
842.36	-48.861
842.66	-52.754
842.96	-59.833
843.26	-65.157
843.55	-66.032
843.85	-67.835
844.15	-67.572
844.45	-66.209
844.74	-64.655
845.04	-67.213
845.34	-66.628
845.63	-65.982
845.93	-68.256
846.23	-66.960
846.53	-69.844
846.82	-77.597
847.12	-82.054
847.42	-80.003
847.71	-85.934
848.01	-86.424
848.31	-81.879
848.60	-78.984
848.90	-79.235
849.19	-74.375
849.49	-76.387
849.79	-77.790
850.08	-80.650
850.38	-77.378
850.68	-78.942
850.97	-77.053
851.27	-73.784
851.56	-80.423
851.86	-79.742
852.16	-79.851
852.45	-83.054
852.75	-79.547
853.04	-77.358
853.34	-70.269
853.64	-68.942
853.93	-64.171
854.23	-65.850
854.52	-67.399
854.82	-61.327
855.11	-65.568
855.41	-64.277
855.70	-60.089
856.00	-60.926
856.30	-62.030
856.59	-58.072
856.89	-59.779
857.18	-66.469
857.48	-67.319
857.77	-69.123
858.07	-75.885
858.36	-76.912
858.66	-79.908
858.95	-85.926
859.25	-82.383
859.54	-82.008
859.84	-83.631
860.13	-80.488
860.42	-76.096
860.72	-74.379
861.01	-76.529
861.31	-73.484
861.60	-67.343
861.90	-65.964
862.19	-62.225
862.49	-64.027
862.78	-60.546
863.07	-59.946
863.37	-58.825
863.66	-62.196
863.96	-61.919
864.25	-53.719
864.54	-51.865
864.84	-52.630
865.13	-51.667
865.43	-50.163
865.72	-24.722
866.01	-66.949
866.31	-44.492
866.60	-69.077
866.89	-25.574
>>>>>End Spectral Data<<<<<
